# Date of analysis: 2023-10-05 17;22
# 
# Loop index	Read Volt (V)	Write Volt (V)	Amplitude (a.u)	Phase (°)	
1		0.00		0.00		1.908e-03		33.917
1		0.00		0.40		2.760e-03		-35.095
1		0.00		0.80		3.199e-03		89.418
1		0.00		1.20		7.009e-03		127.494
1		0.00		1.60		1.100e-02		124.718
1		0.00		2.00		1.565e-02		127.207
1		0.00		2.40		1.931e-02		127.382
1		0.00		2.80		2.263e-02		128.806
1		0.00		3.20		2.637e-02		129.582
1		0.00		3.60		2.929e-02		128.126
1		0.00		4.00		3.244e-02		128.477
1		0.00		4.40		3.577e-02		127.179
1		0.00		4.80		3.804e-02		127.334
1		0.00		5.20		4.103e-02		126.956
1		0.00		5.60		4.379e-02		127.281
1		0.00		6.00		4.551e-02		128.287
1		0.00		6.40		4.879e-02		128.769
1		0.00		6.80		5.039e-02		130.931
1		0.00		7.20		5.305e-02		131.587
1		0.00		7.60		5.617e-02		130.970
1		0.00		8.00		5.614e-02		131.809
1		0.00		8.40		5.813e-02		129.312
1		0.00		8.80		6.018e-02		129.427
1		0.00		9.20		5.923e-02		126.236
1		0.00		9.60		5.582e-02		122.436
1		0.00		10.00		5.638e-02		125.710
1		0.00		9.60		5.761e-02		128.692
1		0.00		9.20		5.646e-02		129.572
1		0.00		8.80		5.432e-02		132.037
1		0.00		8.40		5.299e-02		129.011
1		0.00		8.00		5.037e-02		128.905
1		0.00		7.60		4.887e-02		128.881
1		0.00		7.20		4.718e-02		128.766
1		0.00		6.80		4.502e-02		129.069
1		0.00		6.40		4.192e-02		129.033
1		0.00		6.00		3.882e-02		129.691
1		0.00		5.60		3.570e-02		131.362
1		0.00		5.20		3.249e-02		133.404
1		0.00		4.80		2.881e-02		132.811
1		0.00		4.40		2.485e-02		131.337
1		0.00		4.00		2.120e-02		133.990
1		0.00		3.60		1.711e-02		132.193
1		0.00		3.20		1.330e-02		129.951
1		0.00		2.80		8.910e-03		129.734
1		0.00		2.40		4.874e-03		123.870
1		0.00		2.00		1.782e-03		19.771
1		0.00		1.60		5.006e-03		-48.049
1		0.00		1.20		9.461e-03		-49.707
1		0.00		0.80		1.373e-02		-52.043
1		0.00		0.40		1.840e-02		-48.621
1		0.00		0.00		2.244e-02		-49.854
1		0.00		-0.40		2.693e-02		-49.633
1		0.00		-0.80		3.132e-02		-50.332
1		0.00		-1.20		3.506e-02		-50.447
1		0.00		-1.60		3.937e-02		-51.410
1		0.00		-2.00		4.368e-02		-52.260
1		0.00		-2.40		4.790e-02		-52.376
1		0.00		-2.80		5.214e-02		-53.219
1		0.00		-3.20		5.596e-02		-53.448
1		0.00		-3.60		5.778e-02		-52.917
1		0.00		-4.00		5.791e-02		-55.583
1		0.00		-4.40		5.683e-02		-58.727
1		0.00		-4.80		6.024e-02		-54.228
1		0.00		-5.20		5.852e-02		-48.228
1		0.00		-5.60		6.168e-02		-49.193
1		0.00		-6.00		6.348e-02		-44.840
1		0.00		-6.40		6.300e-02		-47.876
1		0.00		-6.80		6.436e-02		-46.366
1		0.00		-7.20		6.587e-02		-45.847
1		0.00		-7.60		6.680e-02		-44.787
1		0.00		-8.00		6.586e-02		-41.252
1		0.00		-8.40		6.633e-02		-40.807
1		0.00		-8.80		6.636e-02		-41.585
1		0.00		-9.20		6.078e-02		-43.814
1		0.00		-9.60		5.864e-02		-47.775
1		0.00		-10.00		5.345e-02		-46.800
1		0.00		-9.60		5.909e-02		-45.325
1		0.00		-9.20		6.244e-02		-43.507
1		0.00		-8.80		6.433e-02		-45.398
1		0.00		-8.40		6.491e-02		-46.164
1		0.00		-8.00		6.389e-02		-46.580
1		0.00		-7.60		6.171e-02		-47.828
1		0.00		-7.20		5.924e-02		-49.413
1		0.00		-6.80		5.759e-02		-51.349
1		0.00		-6.40		5.178e-02		-51.076
1		0.00		-6.00		5.150e-02		-51.213
1		0.00		-5.60		4.975e-02		-49.730
1		0.00		-5.20		4.642e-02		-50.868
1		0.00		-4.80		4.330e-02		-51.315
1		0.00		-4.40		3.882e-02		-52.998
1		0.00		-4.00		3.560e-02		-51.506
1		0.00		-3.60		3.181e-02		-51.303
1		0.00		-3.20		2.730e-02		-51.101
1		0.00		-2.80		2.371e-02		-48.908
1		0.00		-2.40		1.986e-02		-44.357
1		0.00		-2.00		1.537e-02		-46.920
1		0.00		-1.60		1.098e-02		-43.329
1		0.00		-1.20		6.940e-03		-38.036
1		0.00		-0.80		2.861e-03		-25.808
1		0.00		-0.40		2.528e-03		71.488
2		0.00		0.00		6.274e-03		119.048
2		0.00		0.40		1.029e-02		123.850
2		0.00		0.80		1.399e-02		126.206
2		0.00		1.20		1.766e-02		125.602
2		0.00		1.60		2.133e-02		126.779
2		0.00		2.00		2.472e-02		127.433
2		0.00		2.40		2.771e-02		127.048
2		0.00		2.80		3.045e-02		126.912
2		0.00		3.20		3.346e-02		126.972
2		0.00		3.60		3.584e-02		128.304
2		0.00		4.00		3.931e-02		129.149
2		0.00		4.40		4.245e-02		130.839
2		0.00		4.80		4.557e-02		131.390
2		0.00		5.20		4.855e-02		130.575
2		0.00		5.60		4.982e-02		130.188
2		0.00		6.00		5.266e-02		130.244
2		0.00		6.40		5.348e-02		125.892
2		0.00		6.80		5.449e-02		131.932
2		0.00		7.20		5.475e-02		133.961
2		0.00		7.60		5.434e-02		128.461
2		0.00		8.00		5.596e-02		125.861
2		0.00		8.40		5.716e-02		127.138
2		0.00		8.80		5.828e-02		125.670
2		0.00		9.20		5.993e-02		117.748
2		0.00		9.60		6.028e-02		123.600
2		0.00		10.00		5.751e-02		128.900
2		0.00		9.60		5.714e-02		122.444
2		0.00		9.20		5.860e-02		129.296
2		0.00		8.80		5.824e-02		129.591
2		0.00		8.40		5.787e-02		132.967
2		0.00		8.00		5.485e-02		131.880
2		0.00		7.60		5.101e-02		133.552
2		0.00		7.20		4.989e-02		131.083
2		0.00		6.80		4.664e-02		130.576
2		0.00		6.40		4.342e-02		130.301
2		0.00		6.00		4.102e-02		130.758
2		0.00		5.60		3.819e-02		129.871
2		0.00		5.20		3.454e-02		131.375
2		0.00		4.80		3.195e-02		130.427
2		0.00		4.40		2.788e-02		129.896
2		0.00		4.00		2.342e-02		129.587
2		0.00		3.60		1.983e-02		129.406
2		0.00		3.20		1.595e-02		131.422
2		0.00		2.80		1.229e-02		131.109
2		0.00		2.40		8.078e-03		131.309
2		0.00		2.00		4.270e-03		124.660
2		0.00		1.60		1.795e-03		-6.728
2		0.00		1.20		5.411e-03		-57.776
2		0.00		0.80		9.878e-03		-52.614
2		0.00		0.40		1.456e-02		-55.277
2		0.00		0.00		1.955e-02		-49.312
2		0.00		-0.40		2.467e-02		-48.939
2		0.00		-0.80		2.849e-02		-49.779
2		0.00		-1.20		3.258e-02		-51.065
2		0.00		-1.60		3.649e-02		-51.301
2		0.00		-2.00		4.045e-02		-52.013
2		0.00		-2.40		4.444e-02		-51.989
2		0.00		-2.80		4.725e-02		-51.887
2		0.00		-3.20		4.992e-02		-51.789
2		0.00		-3.60		5.164e-02		-53.105
2		0.00		-4.00		5.499e-02		-53.690
2		0.00		-4.40		5.798e-02		-51.988
2		0.00		-4.80		6.117e-02		-51.723
2		0.00		-5.20		6.276e-02		-49.190
2		0.00		-5.60		6.058e-02		-49.602
2		0.00		-6.00		6.328e-02		-46.616
2		0.00		-6.40		6.296e-02		-44.093
2		0.00		-6.80		6.292e-02		-42.010
2		0.00		-7.20		6.889e-02		-47.472
2		0.00		-7.60		6.638e-02		-53.132
2		0.00		-8.00		6.630e-02		-46.147
2		0.00		-8.40		6.608e-02		-47.889
2		0.00		-8.80		6.604e-02		-47.133
2		0.00		-9.20		6.243e-02		-41.401
2		0.00		-9.60		5.748e-02		-43.481
2		0.00		-10.00		5.141e-02		-44.957
2		0.00		-9.60		5.527e-02		-43.887
2		0.00		-9.20		5.996e-02		-42.374
2		0.00		-8.80		6.295e-02		-44.239
2		0.00		-8.40		6.299e-02		-46.570
2		0.00		-8.00		6.195e-02		-45.873
2		0.00		-7.60		6.061e-02		-45.982
2		0.00		-7.20		5.909e-02		-45.221
2		0.00		-6.80		5.770e-02		-46.937
2		0.00		-6.40		5.640e-02		-49.653
2		0.00		-6.00		5.384e-02		-49.150
2		0.00		-5.60		5.100e-02		-49.866
2		0.00		-5.20		4.843e-02		-50.303
2		0.00		-4.80		4.474e-02		-51.078
2		0.00		-4.40		4.120e-02		-51.787
2		0.00		-4.00		3.644e-02		-52.254
2		0.00		-3.60		3.293e-02		-51.062
2		0.00		-3.20		2.872e-02		-50.633
2		0.00		-2.80		2.446e-02		-50.972
2		0.00		-2.40		1.988e-02		-50.111
2		0.00		-2.00		1.549e-02		-46.413
2		0.00		-1.60		1.086e-02		-47.007
2		0.00		-1.20		6.587e-03		-41.259
2		0.00		-0.80		2.468e-03		-47.275
2		0.00		-0.40		3.618e-03		108.022
3		0.00		0.00		7.502e-03		123.551
3		0.00		0.40		1.146e-02		124.005
3		0.00		0.80		1.549e-02		128.288
3		0.00		1.20		1.955e-02		127.079
3		0.00		1.60		2.300e-02		128.271
3		0.00		2.00		2.696e-02		130.095
3		0.00		2.40		3.041e-02		130.581
3		0.00		2.80		3.287e-02		130.347
3		0.00		3.20		3.629e-02		130.466
3		0.00		3.60		3.938e-02		132.130
3		0.00		4.00		4.185e-02		130.706
3		0.00		4.40		4.445e-02		132.062
3		0.00		4.80		4.738e-02		130.826
3		0.00		5.20		4.930e-02		132.173
3		0.00		5.60		5.165e-02		131.641
3		0.00		6.00		5.449e-02		131.256
3		0.00		6.40		5.579e-02		132.394
3		0.00		6.80		5.687e-02		131.656
3		0.00		7.20		5.902e-02		128.511
3		0.00		7.60		5.696e-02		131.212
3		0.00		8.00		5.641e-02		131.589
3		0.00		8.40		5.672e-02		126.935
3		0.00		8.80		5.814e-02		126.806
3		0.00		9.20		5.775e-02		125.635
3		0.00		9.60		5.759e-02		125.802
3		0.00		10.00		5.714e-02		129.524
3		0.00		9.60		5.826e-02		127.681
3		0.00		9.20		6.019e-02		128.058
3		0.00		8.80		5.701e-02		128.028
3		0.00		8.40		5.482e-02		129.052
3		0.00		8.00		5.211e-02		129.359
3		0.00		7.60		5.108e-02		130.277
3		0.00		7.20		4.851e-02		132.240
3		0.00		6.80		4.681e-02		130.290
3		0.00		6.40		4.396e-02		130.196
3		0.00		6.00		4.152e-02		130.714
3		0.00		5.60		3.841e-02		130.092
3		0.00		5.20		3.506e-02		129.806
3		0.00		4.80		3.087e-02		130.125
3		0.00		4.40		2.766e-02		129.391
3		0.00		4.00		2.393e-02		131.072
3		0.00		3.60		2.027e-02		128.981
3		0.00		3.20		1.641e-02		130.076
3		0.00		2.80		1.219e-02		132.851
3		0.00		2.40		7.846e-03		126.487
3		0.00		2.00		3.975e-03		122.318
3		0.00		1.60		1.881e-03		-24.685
3		0.00		1.20		5.109e-03		-55.924
3		0.00		0.80		9.535e-03		-47.701
3		0.00		0.40		1.410e-02		-48.470
3		0.00		0.00		1.819e-02		-48.961
3		0.00		-0.40		2.252e-02		-48.493
3		0.00		-0.80		2.647e-02		-50.383
3		0.00		-1.20		3.080e-02		-51.058
3		0.00		-1.60		3.509e-02		-51.063
3		0.00		-2.00		3.900e-02		-50.335
3		0.00		-2.40		4.316e-02		-52.347
3		0.00		-2.80		4.657e-02		-51.948
3		0.00		-3.20		5.031e-02		-54.031
3		0.00		-3.60		5.259e-02		-54.112
3		0.00		-4.00		5.546e-02		-53.947
3		0.00		-4.40		5.641e-02		-56.685
3		0.00		-4.80		5.825e-02		-52.524
3		0.00		-5.20		6.080e-02		-46.590
3		0.00		-5.60		5.915e-02		-52.584
3		0.00		-6.00		6.150e-02		-48.836
3		0.00		-6.40		6.445e-02		-49.569
3		0.00		-6.80		6.440e-02		-48.140
3		0.00		-7.20		6.739e-02		-46.662
3		0.00		-7.60		6.853e-02		-51.403
3		0.00		-8.00		6.632e-02		-49.817
3		0.00		-8.40		6.611e-02		-51.503
3		0.00		-8.80		6.371e-02		-42.985
3		0.00		-9.20		6.209e-02		-43.282
3		0.00		-9.60		5.673e-02		-42.097
3		0.00		-10.00		4.992e-02		-45.862
3		0.00		-9.60		5.674e-02		-47.488
3		0.00		-9.20		5.916e-02		-46.653
3		0.00		-8.80		6.188e-02		-47.639
3		0.00		-8.40		6.185e-02		-43.692
3		0.00		-8.00		6.296e-02		-44.981
3		0.00		-7.60		6.060e-02		-44.907
3		0.00		-7.20		5.922e-02		-48.098
3		0.00		-6.80		5.774e-02		-46.067
3		0.00		-6.40		5.671e-02		-47.352
3		0.00		-6.00		5.327e-02		-48.936
3		0.00		-5.60		5.011e-02		-47.956
3		0.00		-5.20		4.714e-02		-49.338
3		0.00		-4.80		4.435e-02		-48.818
3		0.00		-4.40		3.954e-02		-49.858
3		0.00		-4.00		3.592e-02		-50.158
3		0.00		-3.60		3.186e-02		-51.332
3		0.00		-3.20		2.740e-02		-48.973
3		0.00		-2.80		2.384e-02		-49.653
3		0.00		-2.40		1.958e-02		-48.154
3		0.00		-2.00		1.554e-02		-49.529
3		0.00		-1.60		1.065e-02		-41.420
3		0.00		-1.20		6.837e-03		-44.859
3		0.00		-0.80		2.344e-03		-39.682
3		0.00		-0.40		2.792e-03		81.021
4		0.00		0.00		6.456e-03		122.622
4		0.00		0.40		1.089e-02		124.208
4		0.00		0.80		1.460e-02		127.301
4		0.00		1.20		1.888e-02		126.656
4		0.00		1.60		2.273e-02		127.696
4		0.00		2.00		2.640e-02		128.789
4		0.00		2.40		2.988e-02		129.695
4		0.00		2.80		3.319e-02		131.067
4		0.00		3.20		3.649e-02		130.493
4		0.00		3.60		3.826e-02		131.137
4		0.00		4.00		4.076e-02		131.722
4		0.00		4.40		4.387e-02		130.947
4		0.00		4.80		4.609e-02		130.426
4		0.00		5.20		4.735e-02		129.616
4		0.00		5.60		4.985e-02		127.793
4		0.00		6.00		5.233e-02		128.548
4		0.00		6.40		5.384e-02		128.529
4		0.00		6.80		5.477e-02		126.584
4		0.00		7.20		5.653e-02		124.568
4		0.00		7.60		5.824e-02		131.429
4		0.00		8.00		5.826e-02		131.525
4		0.00		8.40		6.106e-02		131.016
4		0.00		8.80		6.310e-02		130.755
4		0.00		9.20		6.330e-02		125.495
4		0.00		9.60		6.356e-02		125.902
4		0.00		10.00		6.324e-02		131.014
4		0.00		9.60		5.894e-02		125.282
4		0.00		9.20		6.034e-02		128.107
4		0.00		8.80		5.849e-02		130.245
4		0.00		8.40		5.610e-02		128.996
4		0.00		8.00		5.544e-02		133.359
4		0.00		7.60		5.227e-02		130.115
4		0.00		7.20		5.133e-02		130.796
4		0.00		6.80		4.824e-02		129.248
4		0.00		6.40		4.518e-02		129.241
4		0.00		6.00		4.222e-02		128.101
4		0.00		5.60		3.874e-02		128.643
4		0.00		5.20		3.589e-02		132.256
4		0.00		4.80		3.202e-02		133.204
4		0.00		4.40		2.838e-02		132.933
4		0.00		4.00		2.532e-02		129.986
4		0.00		3.60		2.140e-02		132.340
4		0.00		3.20		1.741e-02		132.355
4		0.00		2.80		1.391e-02		132.719
4		0.00		2.40		8.924e-03		132.991
4		0.00		2.00		4.820e-03		129.213
4		0.00		1.60		1.720e-03		29.998
4		0.00		1.20		4.663e-03		-55.347
4		0.00		0.80		9.606e-03		-54.669
4		0.00		0.40		1.398e-02		-50.568
4		0.00		0.00		1.812e-02		-48.752
4		0.00		-0.40		2.242e-02		-48.756
4		0.00		-0.80		2.737e-02		-49.860
4		0.00		-1.20		3.113e-02		-49.528
4		0.00		-1.60		3.493e-02		-50.486
4		0.00		-2.00		3.890e-02		-50.688
4		0.00		-2.40		4.218e-02		-51.887
4		0.00		-2.80		4.571e-02		-52.604
4		0.00		-3.20		4.960e-02		-51.277
4		0.00		-3.60		5.206e-02		-52.400
4		0.00		-4.00		5.452e-02		-52.502
4		0.00		-4.40		5.681e-02		-52.203
4		0.00		-4.80		5.995e-02		-50.923
4		0.00		-5.20		6.250e-02		-50.110
4		0.00		-5.60		6.244e-02		-47.043
4		0.00		-6.00		6.415e-02		-48.812
4		0.00		-6.40		6.671e-02		-45.177
4		0.00		-6.80		6.672e-02		-45.017
4		0.00		-7.20		6.407e-02		-42.201
4		0.00		-7.60		6.668e-02		-45.412
4		0.00		-8.00		6.631e-02		-39.312
4		0.00		-8.40		6.622e-02		-48.282
4		0.00		-8.80		6.811e-02		-41.686
4		0.00		-9.20		6.241e-02		-47.698
4		0.00		-9.60		5.718e-02		-49.978
4		0.00		-10.00		5.014e-02		-45.993
4		0.00		-9.60		5.459e-02		-46.819
4		0.00		-9.20		5.905e-02		-43.281
4		0.00		-8.80		5.952e-02		-50.398
4		0.00		-8.40		6.153e-02		-47.943
4		0.00		-8.00		6.308e-02		-47.713
4		0.00		-7.60		6.249e-02		-50.434
4		0.00		-7.20		6.031e-02		-48.481
4		0.00		-6.80		5.920e-02		-49.489
4		0.00		-6.40		5.630e-02		-47.597
4		0.00		-6.00		5.330e-02		-47.332
4		0.00		-5.60		5.147e-02		-49.578
4		0.00		-5.20		4.800e-02		-48.986
4		0.00		-4.80		4.402e-02		-50.837
4		0.00		-4.40		3.983e-02		-50.878
4		0.00		-4.00		3.576e-02		-50.499
4		0.00		-3.60		3.166e-02		-49.166
4		0.00		-3.20		2.772e-02		-48.421
4		0.00		-2.80		2.408e-02		-48.055
4		0.00		-2.40		1.967e-02		-47.655
4		0.00		-2.00		1.498e-02		-48.726
4		0.00		-1.60		1.117e-02		-44.555
4		0.00		-1.20		7.260e-03		-41.498
4		0.00		-0.80		2.701e-03		-28.226
4		0.00		-0.40		2.633e-03		82.549
5		0.00		0.00		6.417e-03		121.973
5		0.00		0.40		1.089e-02		124.060
5		0.00		0.80		1.514e-02		127.186
5		0.00		1.20		1.844e-02		128.416
5		0.00		1.60		2.274e-02		129.916
5		0.00		2.00		2.630e-02		131.400
5		0.00		2.40		2.983e-02		130.651
5		0.00		2.80		3.280e-02		130.997
5		0.00		3.20		3.614e-02		131.554
5		0.00		3.60		3.874e-02		131.387
5		0.00		4.00		4.148e-02		131.552
5		0.00		4.40		4.448e-02		132.119
5		0.00		4.80		4.731e-02		131.678
5		0.00		5.20		4.866e-02		132.593
5		0.00		5.60		5.027e-02		131.852
5		0.00		6.00		5.162e-02		131.882
5		0.00		6.40		5.347e-02		132.367
5		0.00		6.80		5.506e-02		132.442
5		0.00		7.20		5.510e-02		132.333
5		0.00		7.60		5.652e-02		129.172
5		0.00		8.00		5.810e-02		127.731
5		0.00		8.40		5.949e-02		130.324
5		0.00		8.80		6.044e-02		128.281
5		0.00		9.20		6.122e-02		123.187
5		0.00		9.60		6.193e-02		127.576
5		0.00		10.00		6.045e-02		128.550
5		0.00		9.60		6.162e-02		130.141
5		0.00		9.20		6.318e-02		126.611
5		0.00		8.80		5.939e-02		126.820
5		0.00		8.40		5.940e-02		130.580
5		0.00		8.00		5.731e-02		128.582
5		0.00		7.60		5.411e-02		132.302
5		0.00		7.20		5.194e-02		128.976
5		0.00		6.80		4.839e-02		129.811
5		0.00		6.40		4.607e-02		129.468
5		0.00		6.00		4.270e-02		129.328
5		0.00		5.60		4.009e-02		129.641
5		0.00		5.20		3.648e-02		129.386
5		0.00		4.80		3.314e-02		128.376
5		0.00		4.40		2.977e-02		130.100
5		0.00		4.00		2.636e-02		129.801
5		0.00		3.60		2.331e-02		128.053
5		0.00		3.20		1.938e-02		131.717
5		0.00		2.80		1.533e-02		129.794
5		0.00		2.40		1.084e-02		131.219
5		0.00		2.00		6.646e-03		127.069
5		0.00		1.60		2.445e-03		62.994
5		0.00		1.20		3.215e-03		-42.992
5		0.00		0.80		7.135e-03		-47.029
5		0.00		0.40		1.103e-02		-47.600
5		0.00		0.00		1.569e-02		-50.401
5		0.00		-0.40		1.980e-02		-50.097
5		0.00		-0.80		2.403e-02		-51.224
5		0.00		-1.20		2.800e-02		-51.320
5		0.00		-1.60		3.118e-02		-52.729
5		0.00		-2.00		3.447e-02		-53.503
5		0.00		-2.40		3.788e-02		-53.434
5		0.00		-2.80		4.163e-02		-53.733
5		0.00		-3.20		4.512e-02		-54.289
5		0.00		-3.60		4.764e-02		-54.414
5		0.00		-4.00		5.068e-02		-55.158
5		0.00		-4.40		5.456e-02		-52.655
5		0.00		-4.80		5.738e-02		-51.677
5		0.00		-5.20		5.982e-02		-49.453
5		0.00		-5.60		6.087e-02		-46.593
5		0.00		-6.00		6.423e-02		-44.524
5		0.00		-6.40		6.795e-02		-47.902
5		0.00		-6.80		6.712e-02		-45.876
5		0.00		-7.20		6.791e-02		-44.782
5		0.00		-7.60		7.004e-02		-49.013
5		0.00		-8.00		7.145e-02		-47.148
5		0.00		-8.40		6.725e-02		-46.193
5		0.00		-8.80		6.358e-02		-41.473
5		0.00		-9.20		6.034e-02		-45.783
5		0.00		-9.60		5.489e-02		-47.343
5		0.00		-10.00		4.926e-02		-46.396
5		0.00		-9.60		5.397e-02		-46.819
5		0.00		-9.20		5.998e-02		-45.534
5		0.00		-8.80		6.106e-02		-49.278
5		0.00		-8.40		6.214e-02		-45.684
5		0.00		-8.00		6.254e-02		-46.883
5		0.00		-7.60		6.310e-02		-50.342
5		0.00		-7.20		6.217e-02		-49.663
5		0.00		-6.80		5.957e-02		-48.498
5		0.00		-6.40		5.800e-02		-48.595
5		0.00		-6.00		5.461e-02		-49.184
5		0.00		-5.60		5.190e-02		-49.537
5		0.00		-5.20		4.820e-02		-49.734
5		0.00		-4.80		4.399e-02		-50.043
5		0.00		-4.40		3.967e-02		-50.370
5		0.00		-4.00		3.537e-02		-51.083
5		0.00		-3.60		3.139e-02		-50.720
5		0.00		-3.20		2.692e-02		-50.447
5		0.00		-2.80		2.282e-02		-49.646
5		0.00		-2.40		1.869e-02		-48.943
5		0.00		-2.00		1.464e-02		-46.903
5		0.00		-1.60		1.005e-02		-45.299
5		0.00		-1.20		5.787e-03		-38.796
5		0.00		-0.80		2.365e-03		-37.948
5		0.00		-0.40		3.343e-03		98.296
6		0.00		0.00		7.369e-03		122.546
6		0.00		0.40		1.145e-02		124.493
6		0.00		0.80		1.582e-02		127.598
6		0.00		1.20		1.939e-02		127.861
6		0.00		1.60		2.308e-02		127.681
6		0.00		2.00		2.669e-02		130.875
6		0.00		2.40		2.951e-02		128.879
6		0.00		2.80		3.298e-02		129.069
6		0.00		3.20		3.608e-02		130.131
6		0.00		3.60		3.811e-02		129.595
6		0.00		4.00		4.027e-02		131.107
6		0.00		4.40		4.303e-02		129.572
6		0.00		4.80		4.517e-02		130.152
6		0.00		5.20		4.665e-02		129.358
6		0.00		5.60		4.953e-02		129.534
6		0.00		6.00		5.161e-02		128.824
6		0.00		6.40		5.299e-02		131.196
6		0.00		6.80		5.641e-02		127.383
6		0.00		7.20		5.611e-02		128.505
6		0.00		7.60		5.973e-02		129.120
6		0.00		8.00		5.999e-02		133.274
6		0.00		8.40		6.189e-02		131.560
6		0.00		8.80		6.157e-02		129.413
6		0.00		9.20		6.191e-02		126.139
6		0.00		9.60		6.372e-02		133.229
6		0.00		10.00		5.963e-02		126.041
6		0.00		9.60		6.105e-02		125.964
6		0.00		9.20		5.846e-02		126.740
6		0.00		8.80		5.903e-02		132.808
6		0.00		8.40		5.648e-02		133.522
6		0.00		8.00		5.264e-02		127.096
6		0.00		7.60		5.193e-02		132.530
6		0.00		7.20		4.883e-02		130.217
6		0.00		6.80		4.801e-02		132.195
6		0.00		6.40		4.521e-02		130.717
6		0.00		6.00		4.297e-02		130.835
6		0.00		5.60		4.102e-02		131.837
6		0.00		5.20		3.735e-02		131.725
6		0.00		4.80		3.406e-02		132.126
6		0.00		4.40		3.033e-02		132.454
6		0.00		4.00		2.663e-02		132.535
6		0.00		3.60		2.339e-02		131.289
6		0.00		3.20		1.888e-02		131.607
6		0.00		2.80		1.506e-02		132.643
6		0.00		2.40		1.087e-02		131.816
6		0.00		2.00		6.405e-03		127.893
6		0.00		1.60		2.690e-03		85.461
6		0.00		1.20		2.978e-03		-54.766
6		0.00		0.80		6.875e-03		-41.321
6		0.00		0.40		1.150e-02		-50.356
6		0.00		0.00		1.556e-02		-48.348
6		0.00		-0.40		1.976e-02		-48.530
6		0.00		-0.80		2.419e-02		-51.433
6		0.00		-1.20		2.851e-02		-50.854
6		0.00		-1.60		3.195e-02		-51.045
6		0.00		-2.00		3.566e-02		-49.990
6		0.00		-2.40		3.970e-02		-51.748
6		0.00		-2.80		4.440e-02		-52.972
6		0.00		-3.20		4.779e-02		-51.821
6		0.00		-3.60		5.018e-02		-51.921
6		0.00		-4.00		5.328e-02		-52.681
6		0.00		-4.40		5.649e-02		-53.639
6		0.00		-4.80		5.865e-02		-50.415
6		0.00		-5.20		6.087e-02		-50.264
6		0.00		-5.60		6.233e-02		-47.127
6		0.00		-6.00		6.132e-02		-47.829
6		0.00		-6.40		6.363e-02		-48.060
6		0.00		-6.80		6.488e-02		-51.060
6		0.00		-7.20		6.554e-02		-44.702
6		0.00		-7.60		6.741e-02		-41.414
6		0.00		-8.00		6.660e-02		-48.992
6		0.00		-8.40		6.536e-02		-44.177
6		0.00		-8.80		6.152e-02		-47.875
6		0.00		-9.20		5.841e-02		-48.157
6		0.00		-9.60		5.429e-02		-45.853
6		0.00		-10.00		4.755e-02		-47.593
6		0.00		-9.60		5.468e-02		-49.608
6		0.00		-9.20		5.730e-02		-45.532
6		0.00		-8.80		6.094e-02		-48.026
6		0.00		-8.40		6.299e-02		-50.308
6		0.00		-8.00		6.305e-02		-48.232
6		0.00		-7.60		5.952e-02		-49.501
6		0.00		-7.20		6.061e-02		-50.666
6		0.00		-6.80		5.794e-02		-47.204
6		0.00		-6.40		5.526e-02		-46.971
6		0.00		-6.00		5.243e-02		-47.763
6		0.00		-5.60		4.921e-02		-48.611
6		0.00		-5.20		4.627e-02		-49.826
6		0.00		-4.80		4.245e-02		-50.024
6		0.00		-4.40		3.908e-02		-51.590
6		0.00		-4.00		3.527e-02		-51.743
6		0.00		-3.60		3.137e-02		-50.888
6		0.00		-3.20		2.666e-02		-50.972
6		0.00		-2.80		2.290e-02		-49.368
6		0.00		-2.40		1.880e-02		-47.724
6		0.00		-2.00		1.489e-02		-48.238
6		0.00		-1.60		1.066e-02		-43.373
6		0.00		-1.20		6.318e-03		-35.996
6		0.00		-0.80		2.410e-03		-49.873
6		0.00		-0.40		2.969e-03		93.484
7		0.00		0.00		6.936e-03		124.525
7		0.00		0.40		1.097e-02		127.147
7		0.00		0.80		1.495e-02		127.143
7		0.00		1.20		1.887e-02		127.790
7		0.00		1.60		2.264e-02		128.116
7		0.00		2.00		2.609e-02		128.122
7		0.00		2.40		2.924e-02		129.276
7		0.00		2.80		3.216e-02		127.801
7		0.00		3.20		3.516e-02		129.763
7		0.00		3.60		3.719e-02		129.964
7		0.00		4.00		3.956e-02		131.255
7		0.00		4.40		4.173e-02		132.084
7		0.00		4.80		4.452e-02		131.504
7		0.00		5.20		4.565e-02		131.382
7		0.00		5.60		4.795e-02		133.374
7		0.00		6.00		5.027e-02		131.634
7		0.00		6.40		5.325e-02		132.012
7		0.00		6.80		5.434e-02		131.601
7		0.00		7.20		5.774e-02		132.237
7		0.00		7.60		5.791e-02		131.145
7		0.00		8.00		6.061e-02		131.845
7		0.00		8.40		6.240e-02		133.967
7		0.00		8.80		6.319e-02		130.159
7		0.00		9.20		6.181e-02		129.059
7		0.00		9.60		6.021e-02		124.611
7		0.00		10.00		5.751e-02		126.997
7		0.00		9.60		6.010e-02		126.128
7		0.00		9.20		5.917e-02		127.695
7		0.00		8.80		5.804e-02		130.249
7		0.00		8.40		5.620e-02		130.212
7		0.00		8.00		5.324e-02		127.835
7		0.00		7.60		5.237e-02		127.616
7		0.00		7.20		5.024e-02		127.062
7		0.00		6.80		4.997e-02		127.521
7		0.00		6.40		4.683e-02		127.247
7		0.00		6.00		4.409e-02		129.415
7		0.00		5.60		4.119e-02		129.481
7		0.00		5.20		3.808e-02		129.346
7		0.00		4.80		3.491e-02		131.062
7		0.00		4.40		3.093e-02		129.700
7		0.00		4.00		2.744e-02		129.396
7		0.00		3.60		2.351e-02		130.634
7		0.00		3.20		1.952e-02		128.824
7		0.00		2.80		1.530e-02		129.223
7		0.00		2.40		1.107e-02		127.835
7		0.00		2.00		7.098e-03		126.271
7		0.00		1.60		3.224e-03		105.903
7		0.00		1.20		2.204e-03		-39.983
7		0.00		0.80		5.722e-03		-46.785
7		0.00		0.40		9.880e-03		-49.149
7		0.00		0.00		1.403e-02		-48.427
7		0.00		-0.40		1.824e-02		-48.809
7		0.00		-0.80		2.216e-02		-48.820
7		0.00		-1.20		2.615e-02		-51.384
7		0.00		-1.60		3.039e-02		-50.598
7		0.00		-2.00		3.381e-02		-51.512
7		0.00		-2.40		3.717e-02		-51.971
7		0.00		-2.80		4.114e-02		-51.748
7		0.00		-3.20		4.439e-02		-52.441
7		0.00		-3.60		4.757e-02		-51.850
7		0.00		-4.00		5.116e-02		-53.197
7		0.00		-4.40		5.289e-02		-52.781
7		0.00		-4.80		5.580e-02		-52.047
7		0.00		-5.20		5.781e-02		-52.189
7		0.00		-5.60		6.013e-02		-51.628
7		0.00		-6.00		6.263e-02		-49.391
7		0.00		-6.40		6.373e-02		-49.984
7		0.00		-6.80		6.723e-02		-47.076
7		0.00		-7.20		6.851e-02		-48.401
7		0.00		-7.60		6.593e-02		-42.991
7		0.00		-8.00		6.867e-02		-45.311
7		0.00		-8.40		6.612e-02		-48.503
7		0.00		-8.80		6.735e-02		-44.440
7		0.00		-9.20		6.376e-02		-44.021
7		0.00		-9.60		6.019e-02		-46.647
7		0.00		-10.00		5.304e-02		-45.503
7		0.00		-9.60		5.641e-02		-48.243
7		0.00		-9.20		5.906e-02		-47.499
7		0.00		-8.80		6.113e-02		-41.291
7		0.00		-8.40		6.333e-02		-46.924
7		0.00		-8.00		6.487e-02		-45.829
7		0.00		-7.60		6.180e-02		-46.525
7		0.00		-7.20		6.030e-02		-45.981
7		0.00		-6.80		5.714e-02		-52.793
7		0.00		-6.40		5.447e-02		-51.144
7		0.00		-6.00		5.320e-02		-48.088
7		0.00		-5.60		5.052e-02		-48.262
7		0.00		-5.20		4.706e-02		-48.673
7		0.00		-4.80		4.449e-02		-51.548
7		0.00		-4.40		4.020e-02		-52.974
7		0.00		-4.00		3.590e-02		-50.095
7		0.00		-3.60		3.252e-02		-50.912
7		0.00		-3.20		2.837e-02		-50.063
7		0.00		-2.80		2.495e-02		-48.408
7		0.00		-2.40		2.054e-02		-48.296
7		0.00		-2.00		1.655e-02		-46.763
7		0.00		-1.60		1.225e-02		-46.171
7		0.00		-1.20		7.751e-03		-44.897
7		0.00		-0.80		3.036e-03		-22.066
7		0.00		-0.40		2.257e-03		77.344
8		0.00		0.00		6.547e-03		126.196
8		0.00		0.40		1.061e-02		124.737
8		0.00		0.80		1.459e-02		127.651
8		0.00		1.20		1.858e-02		129.286
8		0.00		1.60		2.309e-02		129.792
8		0.00		2.00		2.653e-02		129.005
8		0.00		2.40		2.974e-02		129.577
8		0.00		2.80		3.352e-02		130.263
8		0.00		3.20		3.722e-02		129.094
8		0.00		3.60		3.906e-02		129.920
8		0.00		4.00		4.069e-02		131.497
8		0.00		4.40		4.338e-02		131.699
8		0.00		4.80		4.545e-02		131.857
8		0.00		5.20		4.724e-02		132.404
8		0.00		5.60		5.003e-02		131.660
8		0.00		6.00		5.151e-02		132.967
8		0.00		6.40		5.390e-02		132.673
8		0.00		6.80		5.498e-02		130.521
8		0.00		7.20		5.619e-02		132.131
8		0.00		7.60		5.582e-02		130.586
8		0.00		8.00		5.922e-02		133.032
8		0.00		8.40		6.098e-02		132.897
8		0.00		8.80		5.931e-02		127.843
8		0.00		9.20		6.137e-02		128.433
8		0.00		9.60		6.006e-02		125.351
8		0.00		10.00		5.732e-02		127.251
8		0.00		9.60		5.955e-02		127.336
8		0.00		9.20		6.096e-02		130.487
8		0.00		8.80		5.850e-02		130.106
8		0.00		8.40		5.740e-02		132.317
8		0.00		8.00		5.410e-02		131.304
8		0.00		7.60		5.339e-02		134.507
8		0.00		7.20		5.073e-02		134.473
8		0.00		6.80		4.895e-02		133.175
8		0.00		6.40		4.626e-02		133.140
8		0.00		6.00		4.398e-02		133.222
8		0.00		5.60		4.073e-02		134.103
8		0.00		5.20		3.701e-02		133.194
8		0.00		4.80		3.444e-02		132.633
8		0.00		4.40		3.038e-02		132.784
8		0.00		4.00		2.692e-02		131.187
8		0.00		3.60		2.306e-02		132.872
8		0.00		3.20		1.897e-02		129.396
8		0.00		2.80		1.601e-02		132.251
8		0.00		2.40		1.166e-02		130.821
8		0.00		2.00		7.724e-03		131.142
8		0.00		1.60		3.486e-03		109.249
8		0.00		1.20		2.032e-03		-33.642
8		0.00		0.80		5.407e-03		-51.490
8		0.00		0.40		9.861e-03		-44.953
8		0.00		0.00		1.421e-02		-46.392
8		0.00		-0.40		1.825e-02		-48.748
8		0.00		-0.80		2.260e-02		-48.714
8		0.00		-1.20		2.667e-02		-49.496
8		0.00		-1.60		3.084e-02		-49.804
8		0.00		-2.00		3.522e-02		-49.872
8		0.00		-2.40		3.862e-02		-51.363
8		0.00		-2.80		4.261e-02		-51.773
8		0.00		-3.20		4.591e-02		-52.518
8		0.00		-3.60		4.952e-02		-53.063
8		0.00		-4.00		5.260e-02		-53.797
8		0.00		-4.40		5.498e-02		-52.293
8		0.00		-4.80		5.763e-02		-52.611
8		0.00		-5.20		5.947e-02		-50.288
8		0.00		-5.60		6.080e-02		-49.268
8		0.00		-6.00		6.185e-02		-54.458
8		0.00		-6.40		6.157e-02		-47.479
8		0.00		-6.80		6.332e-02		-50.693
8		0.00		-7.20		6.297e-02		-51.016
8		0.00		-7.60		6.547e-02		-51.579
8		0.00		-8.00		6.492e-02		-48.612
8		0.00		-8.40		6.646e-02		-44.811
8		0.00		-8.80		6.511e-02		-49.608
8		0.00		-9.20		6.544e-02		-45.762
8		0.00		-9.60		5.756e-02		-47.388
8		0.00		-10.00		5.211e-02		-47.657
8		0.00		-9.60		5.623e-02		-44.813
8		0.00		-9.20		6.058e-02		-44.560
8		0.00		-8.80		6.133e-02		-46.735
8		0.00		-8.40		6.128e-02		-43.192
8		0.00		-8.00		6.245e-02		-44.384
8		0.00		-7.60		6.240e-02		-48.016
8		0.00		-7.20		5.995e-02		-48.391
8		0.00		-6.80		5.872e-02		-46.289
8		0.00		-6.40		5.691e-02		-48.634
8		0.00		-6.00		5.444e-02		-48.333
8		0.00		-5.60		5.182e-02		-48.234
8		0.00		-5.20		4.871e-02		-49.602
8		0.00		-4.80		4.540e-02		-50.466
8		0.00		-4.40		4.142e-02		-50.331
8		0.00		-4.00		3.706e-02		-51.328
8		0.00		-3.60		3.330e-02		-49.579
8		0.00		-3.20		2.943e-02		-49.791
8		0.00		-2.80		2.578e-02		-48.891
8		0.00		-2.40		2.114e-02		-48.677
8		0.00		-2.00		1.655e-02		-48.208
8		0.00		-1.60		1.215e-02		-41.562
8		0.00		-1.20		7.475e-03		-35.146
8		0.00		-0.80		3.020e-03		-34.543
8		0.00		-0.40		2.079e-03		45.853
