# Date of analysis: 2023-10-05 17;22
# 
# Loop index	Read Volt (V)	Write Volt (V)	Amplitude (a.u)	Phase (°)	
1		0.00		0.00		4.871e-02		-53.436
1		0.00		0.40		4.353e-02		-52.267
1		0.00		0.80		3.722e-02		-52.850
1		0.00		1.20		3.062e-02		-52.390
1		0.00		1.60		2.384e-02		-52.760
1		0.00		2.00		1.796e-02		-52.883
1		0.00		2.40		1.117e-02		-52.321
1		0.00		2.80		4.640e-03		-51.070
1		0.00		3.20		2.824e-03		81.759
1		0.00		3.60		8.270e-03		128.423
1		0.00		4.00		1.431e-02		128.686
1		0.00		4.40		1.924e-02		129.128
1		0.00		4.80		2.500e-02		127.982
1		0.00		5.20		3.008e-02		130.094
1		0.00		5.60		3.471e-02		127.266
1		0.00		6.00		3.909e-02		126.993
1		0.00		6.40		4.333e-02		128.146
1		0.00		6.80		4.728e-02		129.217
1		0.00		7.20		5.203e-02		129.466
1		0.00		7.60		5.342e-02		131.623
1		0.00		8.00		5.419e-02		132.202
1		0.00		8.40		5.790e-02		132.147
1		0.00		8.80		5.789e-02		130.393
1		0.00		9.20		5.921e-02		131.751
1		0.00		9.60		5.800e-02		129.785
1		0.00		10.00		5.560e-02		130.436
1		0.00		9.60		5.625e-02		128.626
1		0.00		9.20		5.474e-02		125.432
1		0.00		8.80		5.193e-02		126.911
1		0.00		8.40		4.825e-02		125.040
1		0.00		8.00		4.610e-02		125.480
1		0.00		7.60		4.271e-02		124.938
1		0.00		7.20		3.952e-02		125.691
1		0.00		6.80		3.620e-02		128.751
1		0.00		6.40		3.328e-02		128.672
1		0.00		6.00		3.016e-02		129.816
1		0.00		5.60		2.671e-02		131.222
1		0.00		5.20		2.210e-02		132.267
1		0.00		4.80		1.748e-02		128.966
1		0.00		4.40		1.261e-02		131.800
1		0.00		4.00		8.102e-03		133.624
1		0.00		3.60		3.402e-03		105.456
1		0.00		3.20		2.989e-03		-61.718
1		0.00		2.80		8.416e-03		-57.153
1		0.00		2.40		1.406e-02		-53.873
1		0.00		2.00		1.949e-02		-53.265
1		0.00		1.60		2.483e-02		-53.065
1		0.00		1.20		3.035e-02		-55.007
1		0.00		0.80		3.615e-02		-53.698
1		0.00		0.40		4.126e-02		-53.274
1		0.00		0.00		4.631e-02		-52.043
1		0.00		-0.40		5.160e-02		-51.082
1		0.00		-0.80		5.447e-02		-51.375
1		0.00		-1.20		5.725e-02		-53.348
1		0.00		-1.60		5.798e-02		-55.680
1		0.00		-2.00		5.920e-02		-49.348
1		0.00		-2.40		6.343e-02		-47.538
1		0.00		-2.80		6.334e-02		-51.647
1		0.00		-3.20		6.365e-02		-51.330
1		0.00		-3.60		6.284e-02		-48.352
1		0.00		-4.00		6.112e-02		-44.251
1		0.00		-4.40		6.264e-02		-48.340
1		0.00		-4.80		6.459e-02		-52.101
1		0.00		-5.20		6.434e-02		-44.463
1		0.00		-5.60		6.456e-02		-42.761
1		0.00		-6.00		6.753e-02		-45.406
1		0.00		-6.40		6.527e-02		-42.762
1		0.00		-6.80		6.584e-02		-44.365
1		0.00		-7.20		6.103e-02		-43.008
1		0.00		-7.60		6.486e-02		-47.400
1		0.00		-8.00		6.049e-02		-41.055
1		0.00		-8.40		6.245e-02		-47.993
1		0.00		-8.80		5.847e-02		-36.768
1		0.00		-9.20		5.851e-02		-35.108
1		0.00		-9.60		5.673e-02		-43.872
1		0.00		-10.00		5.088e-02		-43.607
1		0.00		-9.60		5.588e-02		-41.323
1		0.00		-9.20		6.032e-02		-35.851
1		0.00		-8.80		6.449e-02		-39.904
1		0.00		-8.40		6.392e-02		-44.509
1		0.00		-8.00		6.296e-02		-43.671
1		0.00		-7.60		6.271e-02		-42.004
1		0.00		-7.20		6.134e-02		-45.848
1		0.00		-6.80		6.134e-02		-44.376
1		0.00		-6.40		5.968e-02		-46.112
1		0.00		-6.00		5.727e-02		-45.449
1		0.00		-5.60		5.576e-02		-51.588
1		0.00		-5.20		5.282e-02		-51.153
1		0.00		-4.80		5.017e-02		-50.993
1		0.00		-4.40		4.578e-02		-52.192
1		0.00		-4.00		4.172e-02		-52.139
1		0.00		-3.60		3.764e-02		-52.685
1		0.00		-3.20		3.386e-02		-52.200
1		0.00		-2.80		2.913e-02		-52.350
1		0.00		-2.40		2.444e-02		-50.228
1		0.00		-2.00		1.973e-02		-50.598
1		0.00		-1.60		1.543e-02		-50.073
1		0.00		-1.20		1.090e-02		-48.812
1		0.00		-0.80		6.318e-03		-49.262
1		0.00		-0.40		2.227e-03		-38.531
2		0.00		0.00		4.317e-03		116.881
2		0.00		0.40		8.819e-03		124.499
2		0.00		0.80		1.351e-02		127.160
2		0.00		1.20		1.781e-02		127.945
2		0.00		1.60		2.264e-02		126.846
2		0.00		2.00		2.735e-02		128.688
2		0.00		2.40		3.195e-02		130.501
2		0.00		2.80		3.602e-02		131.519
2		0.00		3.20		3.921e-02		131.237
2		0.00		3.60		4.205e-02		130.790
2		0.00		4.00		4.391e-02		130.311
2		0.00		4.40		4.679e-02		129.261
2		0.00		4.80		4.921e-02		128.421
2		0.00		5.20		5.226e-02		126.470
2		0.00		5.60		5.397e-02		128.769
2		0.00		6.00		5.546e-02		132.031
2		0.00		6.40		5.853e-02		133.842
2		0.00		6.80		6.165e-02		132.909
2		0.00		7.20		6.197e-02		133.015
2		0.00		7.60		6.311e-02		130.724
2		0.00		8.00		6.296e-02		132.182
2		0.00		8.40		6.383e-02		129.322
2		0.00		8.80		6.402e-02		132.168
2		0.00		9.20		6.469e-02		126.703
2		0.00		9.60		6.208e-02		128.449
2		0.00		10.00		6.033e-02		125.929
2		0.00		9.60		6.029e-02		133.647
2		0.00		9.20		5.973e-02		131.718
2		0.00		8.80		5.798e-02		129.821
2		0.00		8.40		5.264e-02		126.473
2		0.00		8.00		4.957e-02		129.761
2		0.00		7.60		4.689e-02		127.065
2		0.00		7.20		4.447e-02		126.601
2		0.00		6.80		4.112e-02		129.364
2		0.00		6.40		3.797e-02		130.932
2		0.00		6.00		3.414e-02		132.360
2		0.00		5.60		3.039e-02		130.810
2		0.00		5.20		2.654e-02		131.465
2		0.00		4.80		2.301e-02		132.207
2		0.00		4.40		1.803e-02		130.450
2		0.00		4.00		1.336e-02		130.359
2		0.00		3.60		8.105e-03		130.071
2		0.00		3.20		3.162e-03		118.344
2		0.00		2.80		2.953e-03		-67.600
2		0.00		2.40		8.946e-03		-65.581
2		0.00		2.00		1.457e-02		-54.079
2		0.00		1.60		2.085e-02		-52.311
2		0.00		1.20		2.617e-02		-52.252
2		0.00		0.80		3.145e-02		-52.647
2		0.00		0.40		3.659e-02		-51.668
2		0.00		0.00		4.136e-02		-50.993
2		0.00		-0.40		4.556e-02		-51.417
2		0.00		-0.80		4.961e-02		-52.981
2		0.00		-1.20		5.245e-02		-52.045
2		0.00		-1.60		5.486e-02		-51.498
2		0.00		-2.00		5.676e-02		-52.918
2		0.00		-2.40		5.785e-02		-51.773
2		0.00		-2.80		6.150e-02		-52.853
2		0.00		-3.20		6.355e-02		-53.450
2		0.00		-3.60		6.292e-02		-48.470
2		0.00		-4.00		6.852e-02		-52.401
2		0.00		-4.40		6.483e-02		-49.542
2		0.00		-4.80		6.498e-02		-45.872
2		0.00		-5.20		6.451e-02		-43.170
2		0.00		-5.60		6.550e-02		-44.770
2		0.00		-6.00		6.616e-02		-41.599
2		0.00		-6.40		6.728e-02		-42.984
2		0.00		-6.80		6.423e-02		-43.389
2		0.00		-7.20		6.064e-02		-41.148
2		0.00		-7.60		6.345e-02		-42.837
2		0.00		-8.00		6.389e-02		-37.297
2		0.00		-8.40		6.432e-02		-44.391
2		0.00		-8.80		6.433e-02		-36.692
2		0.00		-9.20		6.169e-02		-38.196
2		0.00		-9.60		5.915e-02		-42.306
2		0.00		-10.00		5.332e-02		-41.963
2		0.00		-9.60		5.876e-02		-43.029
2		0.00		-9.20		6.266e-02		-41.712
2		0.00		-8.80		6.345e-02		-39.655
2		0.00		-8.40		6.675e-02		-40.029
2		0.00		-8.00		6.656e-02		-41.362
2		0.00		-7.60		6.389e-02		-44.870
2		0.00		-7.20		6.333e-02		-44.853
2		0.00		-6.80		6.099e-02		-43.727
2		0.00		-6.40		5.933e-02		-46.302
2		0.00		-6.00		5.867e-02		-47.523
2		0.00		-5.60		5.596e-02		-48.364
2		0.00		-5.20		5.318e-02		-50.376
2		0.00		-4.80		4.937e-02		-52.739
2		0.00		-4.40		4.522e-02		-52.757
2		0.00		-4.00		4.110e-02		-53.137
2		0.00		-3.60		3.764e-02		-53.484
2		0.00		-3.20		3.375e-02		-52.674
2		0.00		-2.80		2.961e-02		-50.586
2		0.00		-2.40		2.520e-02		-51.737
2		0.00		-2.00		2.039e-02		-51.145
2		0.00		-1.60		1.626e-02		-50.113
2		0.00		-1.20		1.127e-02		-51.976
2		0.00		-0.80		6.768e-03		-51.714
2		0.00		-0.40		2.278e-03		-49.937
3		0.00		0.00		3.553e-03		107.627
3		0.00		0.40		8.445e-03		129.141
3		0.00		0.80		1.308e-02		128.772
3		0.00		1.20		1.798e-02		130.419
3		0.00		1.60		2.264e-02		130.200
3		0.00		2.00		2.706e-02		129.600
3		0.00		2.40		3.141e-02		130.373
3		0.00		2.80		3.541e-02		129.257
3		0.00		3.20		3.880e-02		130.102
3		0.00		3.60		4.240e-02		129.091
3		0.00		4.00		4.557e-02		129.550
3		0.00		4.40		4.847e-02		129.359
3		0.00		4.80		5.156e-02		130.082
3		0.00		5.20		5.484e-02		130.128
3		0.00		5.60		5.742e-02		131.487
3		0.00		6.00		5.826e-02		132.904
3		0.00		6.40		6.091e-02		133.253
3		0.00		6.80		6.093e-02		134.218
3		0.00		7.20		6.461e-02		133.598
3		0.00		7.60		6.574e-02		137.706
3		0.00		8.00		6.723e-02		136.062
3		0.00		8.40		6.700e-02		131.501
3		0.00		8.80		7.133e-02		131.866
3		0.00		9.20		6.721e-02		124.546
3		0.00		9.60		6.708e-02		129.026
3		0.00		10.00		6.462e-02		129.959
3		0.00		9.60		6.322e-02		131.287
3		0.00		9.20		6.418e-02		132.555
3		0.00		8.80		6.200e-02		132.790
3		0.00		8.40		5.803e-02		131.490
3		0.00		8.00		5.424e-02		128.896
3		0.00		7.60		5.101e-02		129.206
3		0.00		7.20		4.695e-02		132.172
3		0.00		6.80		4.460e-02		130.512
3		0.00		6.40		4.059e-02		128.986
3		0.00		6.00		3.679e-02		127.577
3		0.00		5.60		3.350e-02		129.261
3		0.00		5.20		2.946e-02		131.166
3		0.00		4.80		2.575e-02		131.167
3		0.00		4.40		2.108e-02		132.930
3		0.00		4.00		1.619e-02		135.958
3		0.00		3.60		1.090e-02		132.473
3		0.00		3.20		6.174e-03		132.969
3		0.00		2.80		1.893e-03		-20.971
3		0.00		2.40		5.560e-03		-68.077
3		0.00		2.00		1.103e-02		-58.263
3		0.00		1.60		1.666e-02		-52.656
3		0.00		1.20		2.261e-02		-51.497
3		0.00		0.80		2.821e-02		-52.356
3		0.00		0.40		3.331e-02		-52.228
3		0.00		0.00		3.914e-02		-52.214
3		0.00		-0.40		4.315e-02		-51.747
3		0.00		-0.80		4.775e-02		-52.203
3		0.00		-1.20		5.199e-02		-52.209
3		0.00		-1.60		5.505e-02		-51.959
3		0.00		-2.00		5.688e-02		-50.343
3		0.00		-2.40		5.888e-02		-48.998
3		0.00		-2.80		6.194e-02		-50.015
3		0.00		-3.20		6.322e-02		-50.431
3		0.00		-3.60		6.250e-02		-50.825
3		0.00		-4.00		6.463e-02		-51.691
3		0.00		-4.40		6.204e-02		-50.208
3		0.00		-4.80		6.134e-02		-46.162
3		0.00		-5.20		6.726e-02		-48.393
3		0.00		-5.60		6.489e-02		-48.638
3		0.00		-6.00		6.394e-02		-43.032
3		0.00		-6.40		6.302e-02		-41.494
3		0.00		-6.80		6.640e-02		-46.230
3		0.00		-7.20		6.469e-02		-43.492
3		0.00		-7.60		6.528e-02		-45.879
3		0.00		-8.00		6.472e-02		-41.232
3		0.00		-8.40		6.506e-02		-41.297
3		0.00		-8.80		6.510e-02		-39.468
3		0.00		-9.20		6.273e-02		-42.332
3		0.00		-9.60		5.803e-02		-42.888
3		0.00		-10.00		5.290e-02		-42.621
3		0.00		-9.60		5.981e-02		-42.961
3		0.00		-9.20		6.591e-02		-41.875
3		0.00		-8.80		6.669e-02		-41.671
3		0.00		-8.40		6.528e-02		-40.491
3		0.00		-8.00		6.552e-02		-41.457
3		0.00		-7.60		6.843e-02		-43.283
3		0.00		-7.20		6.408e-02		-44.529
3		0.00		-6.80		6.429e-02		-45.713
3		0.00		-6.40		6.205e-02		-47.748
3		0.00		-6.00		6.007e-02		-48.239
3		0.00		-5.60		5.766e-02		-48.231
3		0.00		-5.20		5.327e-02		-49.482
3		0.00		-4.80		4.969e-02		-50.466
3		0.00		-4.40		4.526e-02		-50.978
3		0.00		-4.00		4.146e-02		-52.248
3		0.00		-3.60		3.756e-02		-52.491
3		0.00		-3.20		3.346e-02		-50.640
3		0.00		-2.80		2.913e-02		-50.770
3		0.00		-2.40		2.511e-02		-50.546
3		0.00		-2.00		2.021e-02		-50.864
3		0.00		-1.60		1.567e-02		-50.772
3		0.00		-1.20		1.053e-02		-48.789
3		0.00		-0.80		5.885e-03		-41.219
3		0.00		-0.40		1.945e-03		-40.536
4		0.00		0.00		4.475e-03		123.427
4		0.00		0.40		9.032e-03		128.444
4		0.00		0.80		1.369e-02		127.523
4		0.00		1.20		1.858e-02		130.004
4		0.00		1.60		2.326e-02		130.296
4		0.00		2.00		2.738e-02		130.721
4		0.00		2.40		3.194e-02		131.140
4		0.00		2.80		3.589e-02		129.618
4		0.00		3.20		3.906e-02		131.445
4		0.00		3.60		4.310e-02		132.057
4		0.00		4.00		4.596e-02		131.407
4		0.00		4.40		4.929e-02		132.362
4		0.00		4.80		5.281e-02		132.455
4		0.00		5.20		5.419e-02		132.848
4		0.00		5.60		5.692e-02		133.631
4		0.00		6.00		6.124e-02		132.253
4		0.00		6.40		6.273e-02		133.328
4		0.00		6.80		6.505e-02		132.381
4		0.00		7.20		6.572e-02		136.069
4		0.00		7.60		6.655e-02		135.342
4		0.00		8.00		6.579e-02		134.576
4		0.00		8.40		6.715e-02		137.373
4		0.00		8.80		6.698e-02		135.997
4		0.00		9.20		6.858e-02		134.421
4		0.00		9.60		6.702e-02		128.773
4		0.00		10.00		6.208e-02		133.284
4		0.00		9.60		6.485e-02		133.732
4		0.00		9.20		6.486e-02		132.778
4		0.00		8.80		6.207e-02		132.612
4		0.00		8.40		5.997e-02		132.760
4		0.00		8.00		5.779e-02		131.121
4		0.00		7.60		5.374e-02		131.435
4		0.00		7.20		5.114e-02		130.515
4		0.00		6.80		4.800e-02		129.180
4		0.00		6.40		4.439e-02		130.017
4		0.00		6.00		4.101e-02		131.031
4		0.00		5.60		3.655e-02		131.442
4		0.00		5.20		3.240e-02		131.544
4		0.00		4.80		2.871e-02		131.439
4		0.00		4.40		2.402e-02		133.687
4		0.00		4.00		1.941e-02		135.435
4		0.00		3.60		1.447e-02		135.231
4		0.00		3.20		8.656e-03		138.923
4		0.00		2.80		3.790e-03		114.904
4		0.00		2.40		2.834e-03		-71.402
4		0.00		2.00		8.814e-03		-60.300
4		0.00		1.60		1.424e-02		-54.506
4		0.00		1.20		1.928e-02		-53.997
4		0.00		0.80		2.486e-02		-52.967
4		0.00		0.40		2.997e-02		-51.895
4		0.00		0.00		3.513e-02		-51.956
4		0.00		-0.40		4.027e-02		-52.048
4		0.00		-0.80		4.542e-02		-52.418
4		0.00		-1.20		4.941e-02		-53.298
4		0.00		-1.60		5.317e-02		-52.712
4		0.00		-2.00		5.706e-02		-52.203
4		0.00		-2.40		5.889e-02		-53.144
4		0.00		-2.80		6.017e-02		-52.427
4		0.00		-3.20		6.096e-02		-51.619
4		0.00		-3.60		6.207e-02		-51.930
4		0.00		-4.00		6.344e-02		-51.157
4		0.00		-4.40		6.365e-02		-47.254
4		0.00		-4.80		6.365e-02		-46.868
4		0.00		-5.20		6.387e-02		-45.802
4		0.00		-5.60		6.453e-02		-45.366
4		0.00		-6.00		6.727e-02		-45.675
4		0.00		-6.40		6.783e-02		-43.501
4		0.00		-6.80		6.655e-02		-41.902
4		0.00		-7.20		7.000e-02		-43.583
4		0.00		-7.60		6.667e-02		-38.416
4		0.00		-8.00		6.860e-02		-42.300
4		0.00		-8.40		6.545e-02		-42.142
4		0.00		-8.80		6.477e-02		-39.768
4		0.00		-9.20		6.336e-02		-41.407
4		0.00		-9.60		5.963e-02		-39.777
4		0.00		-10.00		5.226e-02		-38.171
4		0.00		-9.60		5.783e-02		-40.863
4		0.00		-9.20		6.085e-02		-40.678
4		0.00		-8.80		6.374e-02		-43.317
4		0.00		-8.40		6.485e-02		-41.909
4		0.00		-8.00		6.271e-02		-41.942
4		0.00		-7.60		6.233e-02		-44.753
4		0.00		-7.20		6.231e-02		-45.951
4		0.00		-6.80		6.070e-02		-47.889
4		0.00		-6.40		5.946e-02		-48.121
4		0.00		-6.00		5.798e-02		-47.599
4		0.00		-5.60		5.446e-02		-47.533
4		0.00		-5.20		5.132e-02		-49.996
4		0.00		-4.80		4.733e-02		-51.567
4		0.00		-4.40		4.296e-02		-52.762
4		0.00		-4.00		3.895e-02		-52.093
4		0.00		-3.60		3.516e-02		-51.361
4		0.00		-3.20		3.146e-02		-51.048
4		0.00		-2.80		2.720e-02		-49.117
4		0.00		-2.40		2.283e-02		-50.053
4		0.00		-2.00		1.881e-02		-47.263
4		0.00		-1.60		1.412e-02		-48.827
4		0.00		-1.20		9.693e-03		-43.596
4		0.00		-0.80		5.340e-03		-48.601
4		0.00		-0.40		1.764e-03		0.615
5		0.00		0.00		4.980e-03		124.488
5		0.00		0.40		9.358e-03		128.754
5		0.00		0.80		1.403e-02		129.462
5		0.00		1.20		1.866e-02		132.402
5		0.00		1.60		2.280e-02		129.309
5		0.00		2.00		2.722e-02		129.188
5		0.00		2.40		3.091e-02		129.425
5		0.00		2.80		3.486e-02		130.107
5		0.00		3.20		3.920e-02		130.873
5		0.00		3.60		4.272e-02		131.627
5		0.00		4.00		4.598e-02		132.198
5		0.00		4.40		5.016e-02		131.857
5		0.00		4.80		5.325e-02		132.927
5		0.00		5.20		5.580e-02		131.380
5		0.00		5.60		5.891e-02		131.386
5		0.00		6.00		6.180e-02		132.492
5		0.00		6.40		6.184e-02		134.156
5		0.00		6.80		6.205e-02		135.437
5		0.00		7.20		6.295e-02		132.676
5		0.00		7.60		6.321e-02		131.967
5		0.00		8.00		6.264e-02		130.091
5		0.00		8.40		6.194e-02		129.828
5		0.00		8.80		6.054e-02		130.547
5		0.00		9.20		6.401e-02		129.196
5		0.00		9.60		6.415e-02		132.944
5		0.00		10.00		6.512e-02		132.671
5		0.00		9.60		6.141e-02		126.808
5		0.00		9.20		6.970e-02		131.192
5		0.00		8.80		6.592e-02		134.181
5		0.00		8.40		6.284e-02		131.612
5		0.00		8.00		5.997e-02		131.494
5		0.00		7.60		5.639e-02		129.903
5		0.00		7.20		5.264e-02		129.000
5		0.00		6.80		4.908e-02		131.118
5		0.00		6.40		4.499e-02		132.118
5		0.00		6.00		4.075e-02		132.400
5		0.00		5.60		3.720e-02		132.925
5		0.00		5.20		3.365e-02		133.090
5		0.00		4.80		2.925e-02		132.345
5		0.00		4.40		2.445e-02		133.062
5		0.00		4.00		1.923e-02		134.678
5		0.00		3.60		1.421e-02		133.039
5		0.00		3.20		9.084e-03		131.917
5		0.00		2.80		3.599e-03		116.298
5		0.00		2.40		2.319e-03		-59.706
5		0.00		2.00		7.232e-03		-55.629
5		0.00		1.60		1.259e-02		-50.305
5		0.00		1.20		1.820e-02		-54.281
5		0.00		0.80		2.445e-02		-49.885
5		0.00		0.40		2.928e-02		-52.253
5		0.00		0.00		3.538e-02		-52.013
5		0.00		-0.40		4.020e-02		-52.488
5		0.00		-0.80		4.528e-02		-51.513
5		0.00		-1.20		4.907e-02		-53.089
5		0.00		-1.60		5.211e-02		-54.138
5		0.00		-2.00		5.548e-02		-53.898
5		0.00		-2.40		5.761e-02		-51.298
5		0.00		-2.80		6.100e-02		-54.055
5		0.00		-3.20		6.272e-02		-52.456
5		0.00		-3.60		6.344e-02		-52.734
5		0.00		-4.00		6.579e-02		-51.093
5		0.00		-4.40		6.415e-02		-52.018
5		0.00		-4.80		6.443e-02		-48.220
5		0.00		-5.20		6.307e-02		-48.695
5		0.00		-5.60		6.455e-02		-44.866
5		0.00		-6.00		6.430e-02		-42.603
5		0.00		-6.40		6.411e-02		-40.734
5		0.00		-6.80		6.731e-02		-40.216
5		0.00		-7.20		6.894e-02		-41.658
5		0.00		-7.60		7.003e-02		-41.045
5		0.00		-8.00		6.890e-02		-42.340
5		0.00		-8.40		6.409e-02		-41.188
5		0.00		-8.80		6.214e-02		-40.061
5		0.00		-9.20		6.046e-02		-42.166
5		0.00		-9.60		5.686e-02		-43.290
5		0.00		-10.00		5.020e-02		-43.378
5		0.00		-9.60		5.704e-02		-44.355
5		0.00		-9.20		6.116e-02		-42.904
5		0.00		-8.80		6.487e-02		-42.656
5		0.00		-8.40		6.434e-02		-41.972
5		0.00		-8.00		6.596e-02		-43.394
5		0.00		-7.60		6.338e-02		-44.136
5		0.00		-7.20		6.189e-02		-43.757
5		0.00		-6.80		6.071e-02		-44.920
5		0.00		-6.40		6.067e-02		-47.027
5		0.00		-6.00		5.817e-02		-48.437
5		0.00		-5.60		5.552e-02		-48.510
5		0.00		-5.20		5.172e-02		-49.678
5		0.00		-4.80		4.863e-02		-51.241
5		0.00		-4.40		4.316e-02		-51.122
5		0.00		-4.00		3.859e-02		-53.076
5		0.00		-3.60		3.411e-02		-52.390
5		0.00		-3.20		3.020e-02		-51.332
5		0.00		-2.80		2.627e-02		-48.594
5		0.00		-2.40		2.247e-02		-50.442
5		0.00		-2.00		1.800e-02		-49.187
5		0.00		-1.60		1.334e-02		-48.102
5		0.00		-1.20		8.637e-03		-51.654
5		0.00		-0.80		4.120e-03		-44.414
5		0.00		-0.40		2.061e-03		14.629
6		0.00		0.00		5.350e-03		127.476
6		0.00		0.40		9.747e-03		128.334
6		0.00		0.80		1.475e-02		130.503
6		0.00		1.20		1.922e-02		129.711
6		0.00		1.60		2.410e-02		130.694
6		0.00		2.00		2.799e-02		131.319
6		0.00		2.40		3.177e-02		131.781
6		0.00		2.80		3.572e-02		130.377
6		0.00		3.20		3.874e-02		129.951
6		0.00		3.60		4.148e-02		129.178
6		0.00		4.00		4.445e-02		129.835
6		0.00		4.40		4.789e-02		131.418
6		0.00		4.80		5.091e-02		132.089
6		0.00		5.20		5.358e-02		132.088
6		0.00		5.60		5.658e-02		132.680
6		0.00		6.00		5.904e-02		132.934
6		0.00		6.40		6.139e-02		131.247
6		0.00		6.80		6.155e-02		131.376
6		0.00		7.20		6.303e-02		131.308
6		0.00		7.60		6.353e-02		131.972
6		0.00		8.00		6.392e-02		128.783
6		0.00		8.40		6.780e-02		132.410
6		0.00		8.80		7.039e-02		130.877
6		0.00		9.20		6.840e-02		136.500
6		0.00		9.60		6.553e-02		132.859
6		0.00		10.00		6.328e-02		134.237
6		0.00		9.60		6.194e-02		126.741
6		0.00		9.20		6.178e-02		128.461
6		0.00		8.80		5.942e-02		127.923
6		0.00		8.40		5.865e-02		131.192
6		0.00		8.00		5.625e-02		130.906
6		0.00		7.60		5.297e-02		131.812
6		0.00		7.20		5.057e-02		131.651
6		0.00		6.80		4.787e-02		132.195
6		0.00		6.40		4.414e-02		130.925
6		0.00		6.00		4.070e-02		129.920
6		0.00		5.60		3.657e-02		129.104
6		0.00		5.20		3.255e-02		130.381
6		0.00		4.80		2.874e-02		132.912
6		0.00		4.40		2.421e-02		133.954
6		0.00		4.00		1.980e-02		134.923
6		0.00		3.60		1.482e-02		132.637
6		0.00		3.20		9.760e-03		139.890
6		0.00		2.80		4.614e-03		132.866
6		0.00		2.40		1.868e-03		-49.206
6		0.00		2.00		6.299e-03		-58.207
6		0.00		1.60		1.114e-02		-55.892
6		0.00		1.20		1.606e-02		-51.915
6		0.00		0.80		2.119e-02		-51.307
6		0.00		0.40		2.667e-02		-52.218
6		0.00		0.00		3.225e-02		-49.585
6		0.00		-0.40		3.732e-02		-52.203
6		0.00		-0.80		4.256e-02		-51.770
6		0.00		-1.20		4.709e-02		-52.568
6		0.00		-1.60		5.075e-02		-51.881
6		0.00		-2.00		5.353e-02		-53.022
6		0.00		-2.40		5.612e-02		-52.941
6		0.00		-2.80		5.830e-02		-53.258
6		0.00		-3.20		5.834e-02		-51.817
6		0.00		-3.60		6.044e-02		-50.706
6		0.00		-4.00		6.132e-02		-49.519
6		0.00		-4.40		6.123e-02		-48.419
6		0.00		-4.80		6.264e-02		-48.792
6		0.00		-5.20		6.495e-02		-47.097
6		0.00		-5.60		6.364e-02		-46.802
6		0.00		-6.00		6.654e-02		-46.531
6		0.00		-6.40		6.539e-02		-46.492
6		0.00		-6.80		6.490e-02		-45.358
6		0.00		-7.20		6.422e-02		-44.312
6		0.00		-7.60		6.494e-02		-44.902
6		0.00		-8.00		6.313e-02		-46.562
6		0.00		-8.40		6.595e-02		-39.670
6		0.00		-8.80		6.347e-02		-37.850
6		0.00		-9.20		6.218e-02		-40.223
6		0.00		-9.60		5.867e-02		-42.137
6		0.00		-10.00		5.231e-02		-43.578
6		0.00		-9.60		5.744e-02		-41.951
6		0.00		-9.20		6.251e-02		-40.196
6		0.00		-8.80		6.398e-02		-41.503
6		0.00		-8.40		6.524e-02		-43.029
6		0.00		-8.00		6.518e-02		-46.273
6		0.00		-7.60		6.354e-02		-46.693
6		0.00		-7.20		6.092e-02		-47.106
6		0.00		-6.80		5.973e-02		-48.503
6		0.00		-6.40		5.572e-02		-48.778
6		0.00		-6.00		5.451e-02		-49.288
6		0.00		-5.60		5.163e-02		-48.804
6		0.00		-5.20		4.854e-02		-49.138
6		0.00		-4.80		4.559e-02		-49.682
6		0.00		-4.40		4.251e-02		-51.443
6		0.00		-4.00		3.911e-02		-51.446
6		0.00		-3.60		3.504e-02		-49.813
6		0.00		-3.20		3.135e-02		-51.461
6		0.00		-2.80		2.707e-02		-50.818
6		0.00		-2.40		2.308e-02		-50.685
6		0.00		-2.00		1.791e-02		-49.165
6		0.00		-1.60		1.356e-02		-49.505
6		0.00		-1.20		8.695e-03		-48.315
6		0.00		-0.80		4.385e-03		-37.011
6		0.00		-0.40		1.762e-03		24.914
7		0.00		0.00		5.205e-03		116.824
7		0.00		0.40		9.207e-03		127.381
7		0.00		0.80		1.376e-02		126.216
7		0.00		1.20		1.792e-02		127.534
7		0.00		1.60		2.205e-02		130.595
7		0.00		2.00		2.584e-02		131.077
7		0.00		2.40		2.993e-02		130.883
7		0.00		2.80		3.428e-02		130.894
7		0.00		3.20		3.841e-02		132.983
7		0.00		3.60		4.215e-02		131.895
7		0.00		4.00		4.556e-02		131.723
7		0.00		4.40		4.889e-02		132.027
7		0.00		4.80		5.206e-02		132.856
7		0.00		5.20		5.450e-02		133.906
7		0.00		5.60		5.721e-02		133.731
7		0.00		6.00		5.972e-02		132.787
7		0.00		6.40		6.055e-02		133.976
7		0.00		6.80		6.255e-02		133.992
7		0.00		7.20		6.333e-02		133.552
7		0.00		7.60		6.418e-02		134.524
7		0.00		8.00		6.338e-02		136.523
7		0.00		8.40		6.455e-02		129.970
7		0.00		8.80		6.701e-02		129.266
7		0.00		9.20		6.684e-02		127.196
7		0.00		9.60		6.310e-02		123.803
7		0.00		10.00		6.287e-02		133.540
7		0.00		9.60		6.195e-02		128.481
7		0.00		9.20		6.299e-02		130.537
7		0.00		8.80		6.389e-02		130.371
7		0.00		8.40		6.175e-02		129.276
7		0.00		8.00		5.834e-02		134.024
7		0.00		7.60		5.741e-02		132.122
7		0.00		7.20		5.358e-02		130.841
7		0.00		6.80		5.127e-02		130.844
7		0.00		6.40		4.685e-02		132.095
7		0.00		6.00		4.269e-02		132.463
7		0.00		5.60		3.852e-02		132.618
7		0.00		5.20		3.428e-02		131.792
7		0.00		4.80		3.041e-02		133.495
7		0.00		4.40		2.559e-02		132.895
7		0.00		4.00		2.093e-02		135.164
7		0.00		3.60		1.619e-02		136.022
7		0.00		3.20		1.132e-02		134.882
7		0.00		2.80		6.368e-03		129.255
7		0.00		2.40		2.053e-03		44.212
7		0.00		2.00		4.075e-03		-66.610
7		0.00		1.60		9.797e-03		-52.325
7		0.00		1.20		1.456e-02		-51.485
7		0.00		0.80		1.975e-02		-52.946
7		0.00		0.40		2.501e-02		-49.998
7		0.00		0.00		3.004e-02		-49.027
7		0.00		-0.40		3.476e-02		-50.665
7		0.00		-0.80		3.992e-02		-50.543
7		0.00		-1.20		4.444e-02		-51.050
7		0.00		-1.60		4.886e-02		-51.805
7		0.00		-2.00		5.253e-02		-51.753
7		0.00		-2.40		5.539e-02		-52.223
7		0.00		-2.80		5.770e-02		-51.958
7		0.00		-3.20		5.939e-02		-52.825
7		0.00		-3.60		5.997e-02		-53.881
7		0.00		-4.00		6.273e-02		-53.065
7		0.00		-4.40		6.431e-02		-53.143
7		0.00		-4.80		6.328e-02		-50.938
7		0.00		-5.20		6.366e-02		-48.659
7		0.00		-5.60		6.771e-02		-48.636
7		0.00		-6.00		6.601e-02		-47.234
7		0.00		-6.40		6.654e-02		-46.354
7		0.00		-6.80		6.654e-02		-45.179
7		0.00		-7.20		6.472e-02		-43.660
7		0.00		-7.60		6.562e-02		-44.231
7		0.00		-8.00		6.540e-02		-40.678
7		0.00		-8.40		6.447e-02		-45.012
7		0.00		-8.80		6.271e-02		-42.687
7		0.00		-9.20		5.994e-02		-45.300
7		0.00		-9.60		5.399e-02		-40.591
7		0.00		-10.00		4.753e-02		-43.522
7		0.00		-9.60		5.296e-02		-44.147
7		0.00		-9.20		5.744e-02		-43.208
7		0.00		-8.80		5.777e-02		-41.551
7		0.00		-8.40		5.959e-02		-42.819
7		0.00		-8.00		6.073e-02		-42.044
7		0.00		-7.60		6.151e-02		-44.847
7		0.00		-7.20		6.113e-02		-44.950
7		0.00		-6.80		5.869e-02		-47.535
7		0.00		-6.40		5.796e-02		-47.913
7		0.00		-6.00		5.519e-02		-47.678
7		0.00		-5.60		5.231e-02		-47.946
7		0.00		-5.20		4.861e-02		-49.154
7		0.00		-4.80		4.470e-02		-50.165
7		0.00		-4.40		4.050e-02		-51.441
7		0.00		-4.00		3.664e-02		-52.405
7		0.00		-3.60		3.218e-02		-52.084
7		0.00		-3.20		2.865e-02		-52.399
7		0.00		-2.80		2.447e-02		-49.395
7		0.00		-2.40		2.031e-02		-50.908
7		0.00		-2.00		1.596e-02		-47.135
7		0.00		-1.60		1.156e-02		-47.155
7		0.00		-1.20		7.842e-03		-44.423
7		0.00		-0.80		3.396e-03		-54.458
7		0.00		-0.40		1.973e-03		61.774
8		0.00		0.00		6.586e-03		133.589
8		0.00		0.40		1.055e-02		129.003
8		0.00		0.80		1.569e-02		131.371
8		0.00		1.20		1.974e-02		130.965
8		0.00		1.60		2.429e-02		130.724
8		0.00		2.00		2.811e-02		131.736
8		0.00		2.40		3.220e-02		131.052
8		0.00		2.80		3.584e-02		131.242
8		0.00		3.20		3.919e-02		130.688
8		0.00		3.60		4.207e-02		130.463
8		0.00		4.00		4.437e-02		129.445
8		0.00		4.40		4.682e-02		128.000
8		0.00		4.80		4.964e-02		129.627
8		0.00		5.20		5.153e-02		128.658
8		0.00		5.60		5.299e-02		131.562
8		0.00		6.00		5.614e-02		130.685
8		0.00		6.40		5.788e-02		132.188
8		0.00		6.80		5.895e-02		133.245
8		0.00		7.20		6.177e-02		131.234
8		0.00		7.60		6.407e-02		133.089
8		0.00		8.00		6.589e-02		133.146
8		0.00		8.40		6.843e-02		134.447
8		0.00		8.80		7.151e-02		133.819
8		0.00		9.20		6.903e-02		136.918
8		0.00		9.60		6.914e-02		134.359
8		0.00		10.00		6.688e-02		134.495
8		0.00		9.60		6.734e-02		135.015
8		0.00		9.20		6.811e-02		136.613
8		0.00		8.80		6.292e-02		134.137
8		0.00		8.40		6.154e-02		131.937
8		0.00		8.00		5.788e-02		131.114
8		0.00		7.60		5.512e-02		129.836
8		0.00		7.20		5.226e-02		128.568
8		0.00		6.80		4.896e-02		128.438
8		0.00		6.40		4.556e-02		128.041
8		0.00		6.00		4.214e-02		129.526
8		0.00		5.60		3.778e-02		130.126
8		0.00		5.20		3.406e-02		131.082
8		0.00		4.80		3.059e-02		131.192
8		0.00		4.40		2.683e-02		132.726
8		0.00		4.00		2.197e-02		134.029
8		0.00		3.60		1.757e-02		132.952
8		0.00		3.20		1.230e-02		134.096
8		0.00		2.80		6.989e-03		127.390
8		0.00		2.40		2.225e-03		38.370
8		0.00		2.00		3.910e-03		-64.359
8		0.00		1.60		9.229e-03		-56.082
8		0.00		1.20		1.412e-02		-50.259
8		0.00		0.80		1.892e-02		-51.963
8		0.00		0.40		2.421e-02		-52.062
8		0.00		0.00		2.951e-02		-51.471
8		0.00		-0.40		3.373e-02		-51.198
8		0.00		-0.80		3.822e-02		-51.333
8		0.00		-1.20		4.319e-02		-52.075
8		0.00		-1.60		4.768e-02		-52.447
8		0.00		-2.00		5.114e-02		-53.536
8		0.00		-2.40		5.465e-02		-52.680
8		0.00		-2.80		5.779e-02		-52.558
8		0.00		-3.20		6.007e-02		-53.250
8		0.00		-3.60		6.119e-02		-51.388
8		0.00		-4.00		6.412e-02		-51.761
8		0.00		-4.40		6.509e-02		-50.713
8		0.00		-4.80		6.360e-02		-49.620
8		0.00		-5.20		6.758e-02		-49.879
8		0.00		-5.60		6.842e-02		-48.410
8		0.00		-6.00		6.731e-02		-46.594
8		0.00		-6.40		6.454e-02		-45.980
8		0.00		-6.80		6.454e-02		-46.665
8		0.00		-7.20		6.536e-02		-45.093
8		0.00		-7.60		6.435e-02		-42.587
8		0.00		-8.00		6.578e-02		-48.257
8		0.00		-8.40		6.236e-02		-47.741
8		0.00		-8.80		6.206e-02		-44.412
8		0.00		-9.20		5.930e-02		-42.570
8		0.00		-9.60		5.500e-02		-45.958
8		0.00		-10.00		4.976e-02		-42.856
8		0.00		-9.60		5.566e-02		-44.050
8		0.00		-9.20		6.041e-02		-42.306
8		0.00		-8.80		6.168e-02		-41.422
8		0.00		-8.40		6.382e-02		-40.399
8		0.00		-8.00		6.360e-02		-42.296
8		0.00		-7.60		6.407e-02		-44.254
8		0.00		-7.20		6.401e-02		-45.933
8		0.00		-6.80		6.088e-02		-46.993
8		0.00		-6.40		5.779e-02		-47.501
8		0.00		-6.00		5.558e-02		-47.579
8		0.00		-5.60		5.135e-02		-48.360
8		0.00		-5.20		4.850e-02		-49.318
8		0.00		-4.80		4.420e-02		-51.791
8		0.00		-4.40		3.996e-02		-51.978
8		0.00		-4.00		3.571e-02		-52.697
8		0.00		-3.60		3.174e-02		-52.358
8		0.00		-3.20		2.800e-02		-51.995
8		0.00		-2.80		2.400e-02		-50.186
8		0.00		-2.40		2.024e-02		-48.633
8		0.00		-2.00		1.612e-02		-49.421
8		0.00		-1.60		1.221e-02		-45.755
8		0.00		-1.20		7.958e-03		-53.792
8		0.00		-0.80		3.407e-03		-45.094
8		0.00		-0.40		2.044e-03		73.039
