# Date of analysis: 2023-10-17 09;56
# 
# Loop index	Read Volt (V)	Write Volt (V)	Amplitude (a.u)	Phase (deg)	
1		0.00		0.00		1.573e-02		-43.874
1		0.00		0.40		1.060e-02		-48.700
1		0.00		0.80		5.856e-03		-47.058
1		0.00		1.20		2.073e-03		6.747
1		0.00		1.60		4.262e-03		115.177
1		0.00		2.00		9.068e-03		128.200
1		0.00		2.40		1.305e-02		129.112
1		0.00		2.80		1.776e-02		127.946
1		0.00		3.20		2.219e-02		129.781
1		0.00		3.60		2.654e-02		131.867
1		0.00		4.00		3.000e-02		130.680
1		0.00		4.40		3.304e-02		128.508
1		0.00		4.80		3.655e-02		129.821
1		0.00		5.20		4.036e-02		130.421
1		0.00		5.60		4.348e-02		131.772
1		0.00		6.00		4.598e-02		130.559
1		0.00		6.40		4.834e-02		130.788
1		0.00		6.80		5.148e-02		131.502
1		0.00		7.20		5.369e-02		133.550
1		0.00		7.60		5.492e-02		132.357
1		0.00		8.00		5.753e-02		132.807
1		0.00		8.40		6.189e-02		133.145
1		0.00		8.80		6.201e-02		135.450
1		0.00		9.20		5.917e-02		130.591
1		0.00		9.60		6.212e-02		132.236
1		0.00		10.00		6.188e-02		133.108
1		0.00		9.60		6.400e-02		132.607
1		0.00		9.20		6.069e-02		133.627
1		0.00		8.80		5.808e-02		129.447
1		0.00		8.40		5.756e-02		130.555
1		0.00		8.00		5.459e-02		131.187
1		0.00		7.60		5.221e-02		132.302
1		0.00		7.20		4.958e-02		133.445
1		0.00		6.80		4.563e-02		131.425
1		0.00		6.40		4.277e-02		130.784
1		0.00		6.00		3.949e-02		131.877
1		0.00		5.60		3.632e-02		131.190
1		0.00		5.20		3.215e-02		132.322
1		0.00		4.80		2.793e-02		130.129
1		0.00		4.40		2.383e-02		130.971
1		0.00		4.00		2.040e-02		131.038
1		0.00		3.60		1.656e-02		131.893
1		0.00		3.20		1.191e-02		132.862
1		0.00		2.80		7.136e-03		129.989
1		0.00		2.40		2.979e-03		89.256
1		0.00		2.00		3.333e-03		-44.075
1		0.00		1.60		7.703e-03		-38.849
1		0.00		1.20		1.254e-02		-47.028
1		0.00		0.80		1.750e-02		-47.437
1		0.00		0.40		2.260e-02		-47.613
1		0.00		0.00		2.752e-02		-48.383
1		0.00		-0.40		3.147e-02		-49.608
1		0.00		-0.80		3.536e-02		-49.531
1		0.00		-1.20		3.967e-02		-50.963
1		0.00		-1.60		4.418e-02		-52.987
1		0.00		-2.00		4.841e-02		-51.739
1		0.00		-2.40		5.122e-02		-50.515
1		0.00		-2.80		5.332e-02		-50.994
1		0.00		-3.20		5.696e-02		-52.109
1		0.00		-3.60		5.983e-02		-52.158
1		0.00		-4.00		5.976e-02		-50.853
1		0.00		-4.40		6.179e-02		-49.478
1		0.00		-4.80		6.440e-02		-49.743
1		0.00		-5.20		6.429e-02		-43.487
1		0.00		-5.60		6.912e-02		-48.335
1		0.00		-6.00		6.265e-02		-38.981
1		0.00		-6.40		6.392e-02		-38.416
1		0.00		-6.80		6.652e-02		-43.795
1		0.00		-7.20		6.850e-02		-42.806
1		0.00		-7.60		6.793e-02		-45.500
1		0.00		-8.00		6.611e-02		-45.692
1		0.00		-8.40		6.956e-02		-47.755
1		0.00		-8.80		6.475e-02		-37.107
1		0.00		-9.20		6.624e-02		-38.195
1		0.00		-9.60		6.204e-02		-37.351
1		0.00		-10.00		5.469e-02		-44.796
1		0.00		-9.60		5.782e-02		-40.002
1		0.00		-9.20		6.139e-02		-39.697
1		0.00		-8.80		6.381e-02		-36.397
1		0.00		-8.40		6.464e-02		-46.397
1		0.00		-8.00		6.256e-02		-42.226
1		0.00		-7.60		6.285e-02		-42.237
1		0.00		-7.20		6.353e-02		-41.934
1		0.00		-6.80		6.393e-02		-47.187
1		0.00		-6.40		5.924e-02		-48.129
1		0.00		-6.00		5.878e-02		-47.971
1		0.00		-5.60		5.768e-02		-48.522
1		0.00		-5.20		5.564e-02		-49.547
1		0.00		-4.80		5.306e-02		-51.120
1		0.00		-4.40		4.855e-02		-51.530
1		0.00		-4.00		4.437e-02		-49.843
1		0.00		-3.60		3.988e-02		-50.471
1		0.00		-3.20		3.591e-02		-51.343
1		0.00		-2.80		3.202e-02		-49.408
1		0.00		-2.40		2.806e-02		-47.968
1		0.00		-2.00		2.325e-02		-47.587
1		0.00		-1.60		1.828e-02		-46.130
1		0.00		-1.20		1.341e-02		-42.865
1		0.00		-0.80		9.405e-03		-39.663
1		0.00		-0.40		4.832e-03		-37.730
2		0.00		0.00		1.724e-03		10.138
2		0.00		0.40		4.934e-03		110.225
2		0.00		0.80		9.531e-03		126.786
2		0.00		1.20		1.414e-02		125.758
2		0.00		1.60		1.826e-02		130.976
2		0.00		2.00		2.227e-02		129.515
2		0.00		2.40		2.624e-02		129.071
2		0.00		2.80		3.069e-02		128.151
2		0.00		3.20		3.497e-02		131.913
2		0.00		3.60		3.790e-02		131.088
2		0.00		4.00		4.019e-02		130.229
2		0.00		4.40		4.288e-02		130.311
2		0.00		4.80		4.704e-02		130.086
2		0.00		5.20		4.875e-02		132.641
2		0.00		5.60		5.197e-02		131.820
2		0.00		6.00		5.303e-02		131.927
2		0.00		6.40		5.655e-02		132.301
2		0.00		6.80		5.789e-02		134.390
2		0.00		7.20		5.760e-02		131.732
2		0.00		7.60		5.832e-02		131.937
2		0.00		8.00		5.965e-02		129.160
2		0.00		8.40		6.343e-02		130.345
2		0.00		8.80		6.127e-02		129.060
2		0.00		9.20		6.325e-02		133.226
2		0.00		9.60		6.154e-02		125.226
2		0.00		10.00		6.326e-02		132.868
2		0.00		9.60		6.284e-02		136.098
2		0.00		9.20		5.906e-02		130.843
2		0.00		8.80		6.371e-02		133.885
2		0.00		8.40		6.100e-02		133.804
2		0.00		8.00		6.056e-02		133.596
2		0.00		7.60		5.775e-02		132.767
2		0.00		7.20		5.421e-02		133.874
2		0.00		6.80		5.305e-02		132.099
2		0.00		6.40		4.919e-02		132.107
2		0.00		6.00		4.632e-02		131.432
2		0.00		5.60		4.258e-02		132.003
2		0.00		5.20		3.909e-02		132.089
2		0.00		4.80		3.475e-02		131.161
2		0.00		4.40		3.062e-02		130.978
2		0.00		4.00		2.682e-02		133.113
2		0.00		3.60		2.303e-02		133.100
2		0.00		3.20		1.798e-02		132.680
2		0.00		2.80		1.301e-02		130.868
2		0.00		2.40		8.533e-03		129.149
2		0.00		2.00		4.179e-03		121.243
2		0.00		1.60		1.863e-03		-11.454
2		0.00		1.20		5.234e-03		-53.970
2		0.00		0.80		9.890e-03		-48.508
2		0.00		0.40		1.486e-02		-50.215
2		0.00		0.00		2.028e-02		-47.137
2		0.00		-0.40		2.471e-02		-47.684
2		0.00		-0.80		2.849e-02		-49.842
2		0.00		-1.20		3.328e-02		-50.459
2		0.00		-1.60		3.809e-02		-51.413
2		0.00		-2.00		4.292e-02		-51.092
2		0.00		-2.40		4.627e-02		-49.453
2		0.00		-2.80		4.900e-02		-51.870
2		0.00		-3.20		5.268e-02		-52.428
2		0.00		-3.60		5.587e-02		-52.123
2		0.00		-4.00		5.842e-02		-50.778
2		0.00		-4.40		5.983e-02		-51.045
2		0.00		-4.80		6.181e-02		-48.978
2		0.00		-5.20		6.389e-02		-48.763
2		0.00		-5.60		6.143e-02		-45.435
2		0.00		-6.00		6.401e-02		-42.143
2		0.00		-6.40		6.443e-02		-47.161
2		0.00		-6.80		6.376e-02		-35.842
2		0.00		-7.20		6.737e-02		-40.247
2		0.00		-7.60		7.034e-02		-43.934
2		0.00		-8.00		6.513e-02		-41.172
2		0.00		-8.40		6.521e-02		-40.888
2		0.00		-8.80		6.481e-02		-36.004
2		0.00		-9.20		6.546e-02		-36.016
2		0.00		-9.60		6.269e-02		-40.645
2		0.00		-10.00		5.714e-02		-42.825
2		0.00		-9.60		6.102e-02		-40.742
2		0.00		-9.20		6.145e-02		-36.183
2		0.00		-8.80		6.642e-02		-36.113
2		0.00		-8.40		6.634e-02		-40.014
2		0.00		-8.00		6.629e-02		-42.068
2		0.00		-7.60		6.645e-02		-43.514
2		0.00		-7.20		6.488e-02		-44.434
2		0.00		-6.80		6.360e-02		-45.412
2		0.00		-6.40		6.146e-02		-47.698
2		0.00		-6.00		5.913e-02		-47.811
2		0.00		-5.60		5.691e-02		-47.663
2		0.00		-5.20		5.314e-02		-49.398
2		0.00		-4.80		5.001e-02		-49.366
2		0.00		-4.40		4.694e-02		-52.463
2		0.00		-4.00		4.342e-02		-50.058
2		0.00		-3.60		3.911e-02		-50.598
2		0.00		-3.20		3.416e-02		-49.342
2		0.00		-2.80		2.928e-02		-49.303
2		0.00		-2.40		2.556e-02		-49.231
2		0.00		-2.00		2.184e-02		-49.630
2		0.00		-1.60		1.691e-02		-43.354
2		0.00		-1.20		1.206e-02		-44.328
2		0.00		-0.80		7.574e-03		-45.548
2		0.00		-0.40		2.845e-03		-46.852
3		0.00		0.00		2.573e-03		92.431
3		0.00		0.40		6.968e-03		117.457
3		0.00		0.80		1.122e-02		128.619
3		0.00		1.20		1.571e-02		127.826
3		0.00		1.60		2.009e-02		127.871
3		0.00		2.00		2.434e-02		129.436
3		0.00		2.40		2.891e-02		129.750
3		0.00		2.80		3.189e-02		130.669
3		0.00		3.20		3.482e-02		128.919
3		0.00		3.60		3.730e-02		129.588
3		0.00		4.00		4.060e-02		129.689
3		0.00		4.40		4.383e-02		131.706
3		0.00		4.80		4.635e-02		132.097
3		0.00		5.20		4.835e-02		130.605
3		0.00		5.60		5.023e-02		130.136
3		0.00		6.00		5.315e-02		131.701
3		0.00		6.40		5.527e-02		132.758
3		0.00		6.80		5.694e-02		135.395
3		0.00		7.20		5.977e-02		132.424
3		0.00		7.60		6.173e-02		132.886
3		0.00		8.00		6.423e-02		135.199
3		0.00		8.40		6.303e-02		137.621
3		0.00		8.80		6.207e-02		136.697
3		0.00		9.20		6.487e-02		132.932
3		0.00		9.60		6.751e-02		135.515
3		0.00		10.00		6.591e-02		134.677
3		0.00		9.60		6.710e-02		133.513
3		0.00		9.20		6.274e-02		135.111
3		0.00		8.80		6.122e-02		132.967
3		0.00		8.40		6.050e-02		131.867
3		0.00		8.00		5.820e-02		133.047
3		0.00		7.60		5.713e-02		133.295
3		0.00		7.20		5.469e-02		132.460
3		0.00		6.80		5.159e-02		134.161
3		0.00		6.40		4.894e-02		133.168
3		0.00		6.00		4.545e-02		131.687
3		0.00		5.60		4.216e-02		131.817
3		0.00		5.20		3.966e-02		131.914
3		0.00		4.80		3.548e-02		133.302
3		0.00		4.40		3.174e-02		133.757
3		0.00		4.00		2.713e-02		132.531
3		0.00		3.60		2.324e-02		131.991
3		0.00		3.20		1.918e-02		131.698
3		0.00		2.80		1.473e-02		129.581
3		0.00		2.40		1.011e-02		129.811
3		0.00		2.00		5.198e-03		125.644
3		0.00		1.60		1.676e-03		8.283
3		0.00		1.20		5.100e-03		-41.421
3		0.00		0.80		9.815e-03		-45.968
3		0.00		0.40		1.387e-02		-50.216
3		0.00		0.00		1.839e-02		-49.778
3		0.00		-0.40		2.324e-02		-49.246
3		0.00		-0.80		2.828e-02		-50.472
3		0.00		-1.20		3.232e-02		-50.843
3		0.00		-1.60		3.686e-02		-50.711
3		0.00		-2.00		3.885e-02		-52.468
3		0.00		-2.40		4.360e-02		-50.917
3		0.00		-2.80		4.755e-02		-51.633
3		0.00		-3.20		5.113e-02		-50.020
3		0.00		-3.60		5.382e-02		-51.431
3		0.00		-4.00		5.788e-02		-51.891
3		0.00		-4.40		5.996e-02		-50.967
3		0.00		-4.80		6.017e-02		-48.966
3		0.00		-5.20		6.307e-02		-47.780
3		0.00		-5.60		6.385e-02		-45.566
3		0.00		-6.00		6.397e-02		-42.282
3		0.00		-6.40		6.676e-02		-45.823
3		0.00		-6.80		6.754e-02		-45.087
3		0.00		-7.20		6.477e-02		-36.882
3		0.00		-7.60		6.789e-02		-39.039
3		0.00		-8.00		6.579e-02		-31.964
3		0.00		-8.40		6.829e-02		-36.777
3		0.00		-8.80		6.599e-02		-38.135
3		0.00		-9.20		6.276e-02		-38.381
3		0.00		-9.60		6.147e-02		-39.618
3		0.00		-10.00		5.712e-02		-43.465
3		0.00		-9.60		5.902e-02		-38.719
3		0.00		-9.20		6.495e-02		-38.005
3		0.00		-8.80		6.238e-02		-35.767
3		0.00		-8.40		6.587e-02		-44.723
3		0.00		-8.00		6.290e-02		-38.942
3		0.00		-7.60		6.451e-02		-43.398
3		0.00		-7.20		6.526e-02		-44.050
3		0.00		-6.80		6.259e-02		-45.203
3		0.00		-6.40		6.112e-02		-45.664
3		0.00		-6.00		6.094e-02		-46.645
3		0.00		-5.60		5.687e-02		-47.012
3		0.00		-5.20		5.383e-02		-48.593
3		0.00		-4.80		5.021e-02		-50.138
3		0.00		-4.40		4.650e-02		-50.389
3		0.00		-4.00		4.290e-02		-51.191
3		0.00		-3.60		3.735e-02		-50.113
3		0.00		-3.20		3.292e-02		-50.688
3		0.00		-2.80		2.936e-02		-48.101
3		0.00		-2.40		2.509e-02		-48.056
3		0.00		-2.00		2.007e-02		-47.377
3		0.00		-1.60		1.588e-02		-46.788
3		0.00		-1.20		1.162e-02		-42.608
3		0.00		-0.80		6.738e-03		-42.650
3		0.00		-0.40		2.741e-03		-24.411
4		0.00		0.00		2.950e-03		87.943
4		0.00		0.40		6.998e-03		120.550
4		0.00		0.80		1.106e-02		126.370
4		0.00		1.20		1.541e-02		127.292
4		0.00		1.60		1.964e-02		128.652
4		0.00		2.00		2.375e-02		132.142
4		0.00		2.40		2.777e-02		129.824
4		0.00		2.80		3.141e-02		130.949
4		0.00		3.20		3.550e-02		130.441
4		0.00		3.60		3.870e-02		132.509
4		0.00		4.00		4.060e-02		130.891
4		0.00		4.40		4.417e-02		130.695
4		0.00		4.80		4.797e-02		132.633
4		0.00		5.20		5.043e-02		132.241
4		0.00		5.60		5.204e-02		132.199
4		0.00		6.00		5.349e-02		131.829
4		0.00		6.40		5.572e-02		134.522
4		0.00		6.80		5.655e-02		132.202
4		0.00		7.20		5.844e-02		130.904
4		0.00		7.60		6.022e-02		134.296
4		0.00		8.00		5.920e-02		133.372
4		0.00		8.40		6.219e-02		131.231
4		0.00		8.80		6.549e-02		133.882
4		0.00		9.20		6.446e-02		135.658
4		0.00		9.60		6.282e-02		127.651
4		0.00		10.00		6.361e-02		133.380
4		0.00		9.60		6.439e-02		133.691
4		0.00		9.20		6.218e-02		133.695
4		0.00		8.80		5.978e-02		130.429
4		0.00		8.40		6.178e-02		133.589
4		0.00		8.00		6.070e-02		134.629
4		0.00		7.60		5.833e-02		133.657
4		0.00		7.20		5.494e-02		132.245
4		0.00		6.80		5.241e-02		131.800
4		0.00		6.40		5.026e-02		132.896
4		0.00		6.00		4.746e-02		134.704
4		0.00		5.60		4.281e-02		132.837
4		0.00		5.20		3.957e-02		132.900
4		0.00		4.80		3.618e-02		132.539
4		0.00		4.40		3.292e-02		132.772
4		0.00		4.00		2.811e-02		131.050
4		0.00		3.60		2.453e-02		132.522
4		0.00		3.20		2.017e-02		131.823
4		0.00		2.80		1.539e-02		130.681
4		0.00		2.40		1.104e-02		130.679
4		0.00		2.00		6.725e-03		129.874
4		0.00		1.60		2.486e-03		85.459
4		0.00		1.20		3.043e-03		-45.306
4		0.00		0.80		7.657e-03		-40.492
4		0.00		0.40		1.195e-02		-51.829
4		0.00		0.00		1.648e-02		-46.720
4		0.00		-0.40		2.094e-02		-49.640
4		0.00		-0.80		2.616e-02		-49.849
4		0.00		-1.20		3.003e-02		-49.458
4		0.00		-1.60		3.416e-02		-50.850
4		0.00		-2.00		3.917e-02		-51.629
4		0.00		-2.40		4.282e-02		-50.731
4		0.00		-2.80		4.603e-02		-50.652
4		0.00		-3.20		4.934e-02		-52.440
4		0.00		-3.60		5.259e-02		-52.208
4		0.00		-4.00		5.486e-02		-51.213
4		0.00		-4.40		5.797e-02		-51.857
4		0.00		-4.80		6.210e-02		-49.856
4		0.00		-5.20		6.202e-02		-46.582
4		0.00		-5.60		6.442e-02		-48.673
4		0.00		-6.00		6.469e-02		-44.936
4		0.00		-6.40		6.336e-02		-43.243
4		0.00		-6.80		6.727e-02		-41.291
4		0.00		-7.20		6.606e-02		-42.030
4		0.00		-7.60		6.702e-02		-37.898
4		0.00		-8.00		6.832e-02		-37.393
4		0.00		-8.40		6.838e-02		-41.303
4		0.00		-8.80		6.475e-02		-38.137
4		0.00		-9.20		6.255e-02		-42.664
4		0.00		-9.60		5.953e-02		-41.397
4		0.00		-10.00		5.501e-02		-43.581
4		0.00		-9.60		6.350e-02		-42.522
4		0.00		-9.20		6.101e-02		-39.493
4		0.00		-8.80		6.459e-02		-41.020
4		0.00		-8.40		6.741e-02		-41.089
4		0.00		-8.00		6.563e-02		-43.324
4		0.00		-7.60		6.372e-02		-45.856
4		0.00		-7.20		6.337e-02		-43.926
4		0.00		-6.80		6.315e-02		-44.808
4		0.00		-6.40		5.985e-02		-46.365
4		0.00		-6.00		5.742e-02		-47.461
4		0.00		-5.60		5.510e-02		-48.903
4		0.00		-5.20		5.225e-02		-48.840
4		0.00		-4.80		4.842e-02		-50.195
4		0.00		-4.40		4.350e-02		-50.363
4		0.00		-4.00		3.937e-02		-51.457
4		0.00		-3.60		3.622e-02		-50.278
4		0.00		-3.20		3.133e-02		-48.074
4		0.00		-2.80		2.672e-02		-49.422
4		0.00		-2.40		2.313e-02		-50.268
4		0.00		-2.00		1.898e-02		-48.093
4		0.00		-1.60		1.436e-02		-47.366
4		0.00		-1.20		1.025e-02		-41.079
4		0.00		-0.80		6.040e-03		-34.754
4		0.00		-0.40		2.255e-03		-23.731
5		0.00		0.00		3.207e-03		100.451
5		0.00		0.40		7.091e-03		119.721
5		0.00		0.80		1.136e-02		127.454
5		0.00		1.20		1.520e-02		128.090
5		0.00		1.60		1.987e-02		129.105
5		0.00		2.00		2.420e-02		130.736
5		0.00		2.40		2.757e-02		131.208
5		0.00		2.80		3.145e-02		130.303
5		0.00		3.20		3.549e-02		132.603
5		0.00		3.60		3.798e-02		131.445
5		0.00		4.00		4.051e-02		131.298
5		0.00		4.40		4.359e-02		130.419
5		0.00		4.80		4.669e-02		132.310
5		0.00		5.20		4.775e-02		130.888
5		0.00		5.60		5.008e-02		132.474
5		0.00		6.00		5.188e-02		133.128
5		0.00		6.40		5.384e-02		132.349
5		0.00		6.80		5.640e-02		132.202
5		0.00		7.20		5.794e-02		133.578
5		0.00		7.60		5.815e-02		132.514
5		0.00		8.00		6.219e-02		134.107
5		0.00		8.40		6.260e-02		135.940
5		0.00		8.80		6.270e-02		127.829
5		0.00		9.20		6.767e-02		132.469
5		0.00		9.60		6.632e-02		134.785
5		0.00		10.00		6.299e-02		131.968
5		0.00		9.60		6.254e-02		132.707
5		0.00		9.20		6.567e-02		136.588
5		0.00		8.80		6.376e-02		136.437
5		0.00		8.40		6.076e-02		130.991
5		0.00		8.00		6.028e-02		133.866
5		0.00		7.60		5.842e-02		134.113
5		0.00		7.20		5.493e-02		133.595
5		0.00		6.80		5.196e-02		132.457
5		0.00		6.40		4.946e-02		131.972
5		0.00		6.00		4.584e-02		132.797
5		0.00		5.60		4.166e-02		130.258
5		0.00		5.20		3.843e-02		132.482
5		0.00		4.80		3.545e-02		133.165
5		0.00		4.40		3.109e-02		130.564
5		0.00		4.00		2.697e-02		130.274
5		0.00		3.60		2.393e-02		131.933
5		0.00		3.20		1.968e-02		131.326
5		0.00		2.80		1.521e-02		129.971
5		0.00		2.40		1.156e-02		130.126
5		0.00		2.00		6.482e-03		123.295
5		0.00		1.60		2.735e-03		90.484
5		0.00		1.20		2.708e-03		-37.532
5		0.00		0.80		6.976e-03		-53.085
5		0.00		0.40		1.120e-02		-50.363
5		0.00		0.00		1.568e-02		-47.952
5		0.00		-0.40		2.049e-02		-49.103
5		0.00		-0.80		2.468e-02		-50.285
5		0.00		-1.20		2.883e-02		-49.857
5		0.00		-1.60		3.442e-02		-50.934
5		0.00		-2.00		3.832e-02		-49.758
5		0.00		-2.40		4.149e-02		-51.331
5		0.00		-2.80		4.578e-02		-51.342
5		0.00		-3.20		4.961e-02		-50.598
5		0.00		-3.60		5.188e-02		-52.342
5		0.00		-4.00		5.506e-02		-51.868
5		0.00		-4.40		5.713e-02		-50.703
5		0.00		-4.80		5.970e-02		-49.847
5		0.00		-5.20		6.229e-02		-48.606
5		0.00		-5.60		6.229e-02		-48.626
5		0.00		-6.00		6.423e-02		-47.636
5		0.00		-6.40		6.478e-02		-43.655
5		0.00		-6.80		6.749e-02		-41.804
5		0.00		-7.20		6.772e-02		-48.296
5		0.00		-7.60		6.563e-02		-38.202
5		0.00		-8.00		7.278e-02		-40.791
5		0.00		-8.40		6.767e-02		-48.436
5		0.00		-8.80		6.722e-02		-39.648
5		0.00		-9.20		6.621e-02		-38.282
5		0.00		-9.60		6.186e-02		-43.981
5		0.00		-10.00		5.572e-02		-42.522
5		0.00		-9.60		6.180e-02		-40.881
5		0.00		-9.20		6.493e-02		-41.087
5		0.00		-8.80		6.438e-02		-41.116
5		0.00		-8.40		6.746e-02		-43.174
5		0.00		-8.00		6.441e-02		-41.488
5		0.00		-7.60		6.388e-02		-45.857
5		0.00		-7.20		6.309e-02		-46.007
5		0.00		-6.80		6.304e-02		-45.812
5		0.00		-6.40		5.847e-02		-45.916
5		0.00		-6.00		5.585e-02		-49.733
5		0.00		-5.60		5.406e-02		-48.118
5		0.00		-5.20		5.046e-02		-48.726
5		0.00		-4.80		4.614e-02		-49.781
5		0.00		-4.40		4.206e-02		-50.913
5		0.00		-4.00		3.872e-02		-51.562
5		0.00		-3.60		3.459e-02		-50.415
5		0.00		-3.20		3.052e-02		-49.369
5		0.00		-2.80		2.650e-02		-48.863
5		0.00		-2.40		2.364e-02		-46.676
5		0.00		-2.00		1.804e-02		-46.399
5		0.00		-1.60		1.411e-02		-43.853
5		0.00		-1.20		1.015e-02		-41.903
5		0.00		-0.80		5.786e-03		-33.208
5		0.00		-0.40		2.024e-03		-15.975
6		0.00		0.00		3.830e-03		102.007
6		0.00		0.40		7.645e-03		121.428
6		0.00		0.80		1.177e-02		127.734
6		0.00		1.20		1.544e-02		125.970
6		0.00		1.60		1.954e-02		129.943
6		0.00		2.00		2.392e-02		129.472
6		0.00		2.40		2.737e-02		129.828
6		0.00		2.80		3.003e-02		129.452
6		0.00		3.20		3.421e-02		129.381
6		0.00		3.60		3.741e-02		131.277
6		0.00		4.00		4.007e-02		131.993
6		0.00		4.40		4.223e-02		130.511
6		0.00		4.80		4.614e-02		131.659
6		0.00		5.20		4.856e-02		133.576
6		0.00		5.60		4.944e-02		131.605
6		0.00		6.00		5.169e-02		131.081
6		0.00		6.40		5.460e-02		133.487
6		0.00		6.80		5.615e-02		132.072
6		0.00		7.20		5.793e-02		131.199
6		0.00		7.60		6.172e-02		135.057
6		0.00		8.00		5.989e-02		136.722
6		0.00		8.40		6.236e-02		129.388
6		0.00		8.80		6.650e-02		134.219
6		0.00		9.20		6.698e-02		132.015
6		0.00		9.60		6.478e-02		130.726
6		0.00		10.00		6.352e-02		132.476
6		0.00		9.60		6.439e-02		133.275
6		0.00		9.20		6.361e-02		135.348
6		0.00		8.80		6.125e-02		134.116
6		0.00		8.40		6.125e-02		129.677
6		0.00		8.00		5.984e-02		132.257
6		0.00		7.60		5.699e-02		134.030
6		0.00		7.20		5.276e-02		134.202
6		0.00		6.80		5.022e-02		131.382
6		0.00		6.40		4.817e-02		131.477
6		0.00		6.00		4.495e-02		133.799
6		0.00		5.60		4.112e-02		132.846
6		0.00		5.20		3.759e-02		131.002
6		0.00		4.80		3.460e-02		131.162
6		0.00		4.40		3.118e-02		132.745
6		0.00		4.00		2.772e-02		132.674
6		0.00		3.60		2.353e-02		132.127
6		0.00		3.20		2.039e-02		132.839
6		0.00		2.80		1.604e-02		131.951
6		0.00		2.40		1.179e-02		131.904
6		0.00		2.00		7.200e-03		124.529
6		0.00		1.60		3.027e-03		117.704
6		0.00		1.20		2.609e-03		-55.550
6		0.00		0.80		6.577e-03		-43.383
6		0.00		0.40		1.084e-02		-47.404
6		0.00		0.00		1.553e-02		-51.168
6		0.00		-0.40		2.021e-02		-47.751
6		0.00		-0.80		2.423e-02		-51.127
6		0.00		-1.20		2.762e-02		-49.676
6		0.00		-1.60		3.247e-02		-49.023
6		0.00		-2.00		3.639e-02		-50.116
6		0.00		-2.40		3.950e-02		-49.966
6		0.00		-2.80		4.233e-02		-52.123
6		0.00		-3.20		4.744e-02		-52.179
6		0.00		-3.60		5.070e-02		-51.243
6		0.00		-4.00		5.335e-02		-51.335
6		0.00		-4.40		5.642e-02		-52.794
6		0.00		-4.80		6.060e-02		-50.723
6		0.00		-5.20		6.164e-02		-47.213
6		0.00		-5.60		6.212e-02		-48.051
6		0.00		-6.00		6.560e-02		-45.269
6		0.00		-6.40		6.645e-02		-45.948
6		0.00		-6.80		6.422e-02		-45.806
6		0.00		-7.20		6.796e-02		-45.068
6		0.00		-7.60		6.801e-02		-38.514
6		0.00		-8.00		6.869e-02		-40.787
6		0.00		-8.40		6.786e-02		-42.933
6		0.00		-8.80		6.470e-02		-42.793
6		0.00		-9.20		6.363e-02		-34.383
6		0.00		-9.60		6.304e-02		-41.677
6		0.00		-10.00		5.399e-02		-43.867
6		0.00		-9.60		5.938e-02		-43.851
6		0.00		-9.20		6.373e-02		-38.067
6		0.00		-8.80		6.201e-02		-37.588
6		0.00		-8.40		6.391e-02		-44.065
6		0.00		-8.00		6.417e-02		-40.846
6		0.00		-7.60		6.669e-02		-43.168
6		0.00		-7.20		6.163e-02		-45.084
6		0.00		-6.80		5.957e-02		-48.087
6		0.00		-6.40		5.855e-02		-48.409
6		0.00		-6.00		5.781e-02		-47.758
6		0.00		-5.60		5.462e-02		-47.623
6		0.00		-5.20		5.067e-02		-48.193
6		0.00		-4.80		4.745e-02		-50.008
6		0.00		-4.40		4.436e-02		-50.678
6		0.00		-4.00		4.033e-02		-50.271
6		0.00		-3.60		3.605e-02		-50.288
6		0.00		-3.20		3.147e-02		-50.392
6		0.00		-2.80		2.838e-02		-48.363
6		0.00		-2.40		2.418e-02		-47.651
6		0.00		-2.00		1.950e-02		-48.493
6		0.00		-1.60		1.489e-02		-44.840
6		0.00		-1.20		1.083e-02		-41.906
6		0.00		-0.80		6.285e-03		-41.410
6		0.00		-0.40		2.425e-03		-37.720
7		0.00		0.00		3.039e-03		93.019
7		0.00		0.40		7.038e-03		121.326
7		0.00		0.80		1.123e-02		126.341
7		0.00		1.20		1.546e-02		126.848
7		0.00		1.60		1.992e-02		127.281
7		0.00		2.00		2.410e-02		129.680
7		0.00		2.40		2.731e-02		129.146
7		0.00		2.80		3.019e-02		128.832
7		0.00		3.20		3.416e-02		129.799
7		0.00		3.60		3.746e-02		130.496
7		0.00		4.00		4.041e-02		130.430
7		0.00		4.40		4.334e-02		130.991
7		0.00		4.80		4.701e-02		131.682
7		0.00		5.20		4.890e-02		132.235
7		0.00		5.60		5.049e-02		131.675
7		0.00		6.00		5.334e-02		132.178
7		0.00		6.40		5.553e-02		133.862
7		0.00		6.80		5.656e-02		132.918
7		0.00		7.20		5.878e-02		131.673
7		0.00		7.60		6.239e-02		133.213
7		0.00		8.00		6.086e-02		136.347
7		0.00		8.40		6.139e-02		133.602
7		0.00		8.80		6.361e-02		135.126
7		0.00		9.20		6.314e-02		137.186
7		0.00		9.60		6.326e-02		132.295
7		0.00		10.00		6.081e-02		133.748
7		0.00		9.60		6.498e-02		132.035
7		0.00		9.20		6.413e-02		131.293
7		0.00		8.80		6.223e-02		129.906
7		0.00		8.40		6.063e-02		129.633
7		0.00		8.00		5.880e-02		133.784
7		0.00		7.60		5.586e-02		134.822
7		0.00		7.20		5.329e-02		129.791
7		0.00		6.80		5.240e-02		132.533
7		0.00		6.40		4.950e-02		133.671
7		0.00		6.00		4.622e-02		132.816
7		0.00		5.60		4.254e-02		132.434
7		0.00		5.20		3.919e-02		131.708
7		0.00		4.80		3.612e-02		132.677
7		0.00		4.40		3.198e-02		132.342
7		0.00		4.00		2.822e-02		131.597
7		0.00		3.60		2.458e-02		132.507
7		0.00		3.20		2.059e-02		132.757
7		0.00		2.80		1.620e-02		131.098
7		0.00		2.40		1.203e-02		128.307
7		0.00		2.00		7.522e-03		132.391
7		0.00		1.60		3.240e-03		121.624
7		0.00		1.20		1.949e-03		-23.811
7		0.00		0.80		5.911e-03		-46.660
7		0.00		0.40		1.048e-02		-49.719
7		0.00		0.00		1.401e-02		-49.123
7		0.00		-0.40		1.925e-02		-47.516
7		0.00		-0.80		2.382e-02		-48.898
7		0.00		-1.20		2.690e-02		-50.069
7		0.00		-1.60		3.164e-02		-50.831
7		0.00		-2.00		3.582e-02		-49.813
7		0.00		-2.40		3.916e-02		-50.605
7		0.00		-2.80		4.350e-02		-52.067
7		0.00		-3.20		4.758e-02		-51.581
7		0.00		-3.60		5.000e-02		-52.139
7		0.00		-4.00		5.370e-02		-52.743
7		0.00		-4.40		5.835e-02		-51.050
7		0.00		-4.80		5.886e-02		-50.591
7		0.00		-5.20		6.298e-02		-49.768
7		0.00		-5.60		6.309e-02		-45.963
7		0.00		-6.00		6.480e-02		-50.461
7		0.00		-6.40		6.560e-02		-44.022
7		0.00		-6.80		6.552e-02		-46.173
7		0.00		-7.20		6.923e-02		-44.340
7		0.00		-7.60		6.787e-02		-42.367
7		0.00		-8.00		6.722e-02		-35.252
7		0.00		-8.40		6.333e-02		-39.537
7		0.00		-8.80		6.753e-02		-38.250
7		0.00		-9.20		6.337e-02		-37.808
7		0.00		-9.60		5.954e-02		-42.828
7		0.00		-10.00		5.357e-02		-44.604
7		0.00		-9.60		6.068e-02		-43.778
7		0.00		-9.20		6.048e-02		-42.286
7		0.00		-8.80		6.279e-02		-39.938
7		0.00		-8.40		6.617e-02		-41.936
7		0.00		-8.00		6.360e-02		-47.356
7		0.00		-7.60		6.497e-02		-45.064
7		0.00		-7.20		6.528e-02		-44.898
7		0.00		-6.80		6.078e-02		-47.354
7		0.00		-6.40		5.994e-02		-47.509
7		0.00		-6.00		5.802e-02		-47.603
7		0.00		-5.60		5.408e-02		-47.384
7		0.00		-5.20		5.044e-02		-48.761
7		0.00		-4.80		4.679e-02		-49.372
7		0.00		-4.40		4.326e-02		-49.173
7		0.00		-4.00		3.883e-02		-50.631
7		0.00		-3.60		3.527e-02		-51.028
7		0.00		-3.20		3.180e-02		-49.624
7		0.00		-2.80		2.690e-02		-47.423
7		0.00		-2.40		2.253e-02		-48.219
7		0.00		-2.00		1.872e-02		-48.467
7		0.00		-1.60		1.436e-02		-44.405
7		0.00		-1.20		1.012e-02		-43.007
7		0.00		-0.80		5.465e-03		-35.964
7		0.00		-0.40		2.125e-03		-16.218
8		0.00		0.00		3.303e-03		94.091
8		0.00		0.40		7.526e-03		118.376
8		0.00		0.80		1.193e-02		128.657
8		0.00		1.20		1.566e-02		127.880
8		0.00		1.60		2.006e-02		127.490
8		0.00		2.00		2.397e-02		130.845
8		0.00		2.40		2.719e-02		128.234
8		0.00		2.80		3.133e-02		129.693
8		0.00		3.20		3.555e-02		132.255
8		0.00		3.60		3.760e-02		131.472
8		0.00		4.00		4.103e-02		131.452
8		0.00		4.40		4.477e-02		132.554
8		0.00		4.80		4.651e-02		132.091
8		0.00		5.20		4.844e-02		130.951
8		0.00		5.60		5.240e-02		132.704
8		0.00		6.00		5.241e-02		132.545
8		0.00		6.40		5.624e-02		131.299
8		0.00		6.80		5.699e-02		133.277
8		0.00		7.20		5.737e-02		131.225
8		0.00		7.60		5.877e-02		130.983
8		0.00		8.00		6.173e-02		134.612
8		0.00		8.40		5.989e-02		131.936
8		0.00		8.80		6.249e-02		132.605
8		0.00		9.20		6.559e-02		135.666
8		0.00		9.60		6.134e-02		134.123
8		0.00		10.00		6.029e-02		133.130
8		0.00		9.60		6.564e-02		134.104
8		0.00		9.20		5.924e-02		131.558
8		0.00		8.80		6.140e-02		130.416
8		0.00		8.40		6.223e-02		134.818
8		0.00		8.00		5.945e-02		135.347
8		0.00		7.60		5.719e-02		133.210
8		0.00		7.20		5.556e-02		133.004
8		0.00		6.80		5.293e-02		134.287
8		0.00		6.40		4.952e-02		132.593
8		0.00		6.00		4.725e-02		132.281
8		0.00		5.60		4.359e-02		132.684
8		0.00		5.20		4.012e-02		132.787
8		0.00		4.80		3.591e-02		132.141
8		0.00		4.40		3.301e-02		132.657
8		0.00		4.00		2.906e-02		132.682
8		0.00		3.60		2.425e-02		132.691
8		0.00		3.20		2.120e-02		133.292
8		0.00		2.80		1.650e-02		133.312
8		0.00		2.40		1.197e-02		129.425
8		0.00		2.00		8.128e-03		129.509
8		0.00		1.60		3.657e-03		111.728
8		0.00		1.20		1.925e-03		-13.252
8		0.00		0.80		5.522e-03		-50.774
8		0.00		0.40		9.781e-03		-44.233
8		0.00		0.00		1.375e-02		-47.468
8		0.00		-0.40		1.868e-02		-50.469
8		0.00		-0.80		2.260e-02		-47.237
8		0.00		-1.20		2.678e-02		-49.806
8		0.00		-1.60		3.196e-02		-49.226
8		0.00		-2.00		3.524e-02		-49.464
8		0.00		-2.40		3.920e-02		-50.973
8		0.00		-2.80		4.410e-02		-50.728
8		0.00		-3.20		4.696e-02		-51.420
8		0.00		-3.60		4.976e-02		-52.366
8		0.00		-4.00		5.451e-02		-52.426
8		0.00		-4.40		5.650e-02		-49.936
8		0.00		-4.80		5.880e-02		-51.955
8		0.00		-5.20		6.165e-02		-48.481
8		0.00		-5.60		6.220e-02		-48.643
8		0.00		-6.00		6.326e-02		-48.195
8		0.00		-6.40		6.584e-02		-45.028
8		0.00		-6.80		6.538e-02		-44.188
8		0.00		-7.20		6.611e-02		-41.622
8		0.00		-7.60		6.965e-02		-42.993
8		0.00		-8.00		6.613e-02		-46.203
8		0.00		-8.40		6.583e-02		-38.900
8		0.00		-8.80		6.625e-02		-40.022
8		0.00		-9.20		6.105e-02		-36.872
8		0.00		-9.60		5.940e-02		-41.744
8		0.00		-10.00		5.549e-02		-41.183
8		0.00		-9.60		5.769e-02		-40.098
8		0.00		-9.20		6.165e-02		-41.857
8		0.00		-8.80		6.620e-02		-39.954
8		0.00		-8.40		6.467e-02		-42.528
8		0.00		-8.00		6.726e-02		-41.190
8		0.00		-7.60		6.603e-02		-44.266
8		0.00		-7.20		6.380e-02		-44.583
8		0.00		-6.80		6.269e-02		-46.383
8		0.00		-6.40		6.023e-02		-46.064
8		0.00		-6.00		5.713e-02		-46.963
8		0.00		-5.60		5.476e-02		-47.693
8		0.00		-5.20		5.194e-02		-49.342
8		0.00		-4.80		4.770e-02		-49.283
8		0.00		-4.40		4.247e-02		-51.208
8		0.00		-4.00		3.961e-02		-50.404
8		0.00		-3.60		3.513e-02		-49.742
8		0.00		-3.20		3.030e-02		-51.399
8		0.00		-2.80		2.736e-02		-48.346
8		0.00		-2.40		2.218e-02		-47.614
8		0.00		-2.00		1.811e-02		-47.381
8		0.00		-1.60		1.442e-02		-42.656
8		0.00		-1.20		1.022e-02		-43.411
8		0.00		-0.80		5.940e-03		-34.149
8		0.00		-0.40		2.243e-03		-12.565
