# Date of analysis: 2023-10-05 17;23
# 
# Loop index	Read Volt (V)	Write Volt (V)	Amplitude (a.u)	Phase (°)	
1		0.00		0.00		1.355e-02		-49.023
1		0.00		0.40		9.154e-03		-41.017
1		0.00		0.80		4.436e-03		-43.102
1		0.00		1.20		2.092e-03		38.725
1		0.00		1.60		5.918e-03		115.374
1		0.00		2.00		1.077e-02		129.825
1		0.00		2.40		1.574e-02		127.552
1		0.00		2.80		2.064e-02		129.465
1		0.00		3.20		2.524e-02		129.312
1		0.00		3.60		2.869e-02		130.147
1		0.00		4.00		3.202e-02		129.019
1		0.00		4.40		3.556e-02		128.501
1		0.00		4.80		3.925e-02		127.571
1		0.00		5.20		4.275e-02		127.722
1		0.00		5.60		4.605e-02		130.505
1		0.00		6.00		5.018e-02		131.104
1		0.00		6.40		5.237e-02		130.975
1		0.00		6.80		5.712e-02		132.433
1		0.00		7.20		5.787e-02		130.878
1		0.00		7.60		5.990e-02		132.580
1		0.00		8.00		6.174e-02		129.998
1		0.00		8.40		6.091e-02		131.496
1		0.00		8.80		5.994e-02		133.127
1		0.00		9.20		6.323e-02		130.161
1		0.00		9.60		6.104e-02		129.997
1		0.00		10.00		5.838e-02		130.988
1		0.00		9.60		6.244e-02		130.781
1		0.00		9.20		6.325e-02		131.634
1		0.00		8.80		5.940e-02		130.403
1		0.00		8.40		5.741e-02		127.897
1		0.00		8.00		5.411e-02		130.304
1		0.00		7.60		5.262e-02		129.938
1		0.00		7.20		5.013e-02		132.160
1		0.00		6.80		4.838e-02		131.967
1		0.00		6.40		4.533e-02		129.705
1		0.00		6.00		4.115e-02		130.428
1		0.00		5.60		3.698e-02		129.357
1		0.00		5.20		3.264e-02		130.528
1		0.00		4.80		2.873e-02		131.769
1		0.00		4.40		2.475e-02		131.775
1		0.00		4.00		2.025e-02		131.307
1		0.00		3.60		1.606e-02		130.838
1		0.00		3.20		1.118e-02		131.004
1		0.00		2.80		6.130e-03		122.110
1		0.00		2.40		2.270e-03		64.386
1		0.00		2.00		3.593e-03		-51.736
1		0.00		1.60		8.489e-03		-49.457
1		0.00		1.20		1.294e-02		-51.497
1		0.00		0.80		1.809e-02		-51.082
1		0.00		0.40		2.325e-02		-50.918
1		0.00		0.00		2.804e-02		-49.884
1		0.00		-0.40		3.242e-02		-50.568
1		0.00		-0.80		3.691e-02		-52.148
1		0.00		-1.20		4.192e-02		-51.744
1		0.00		-1.60		4.661e-02		-50.890
1		0.00		-2.00		5.014e-02		-52.977
1		0.00		-2.40		5.334e-02		-51.378
1		0.00		-2.80		5.763e-02		-53.270
1		0.00		-3.20		6.273e-02		-52.522
1		0.00		-3.60		6.077e-02		-51.333
1		0.00		-4.00		6.154e-02		-52.068
1		0.00		-4.40		6.200e-02		-50.090
1		0.00		-4.80		6.006e-02		-45.792
1		0.00		-5.20		6.232e-02		-42.197
1		0.00		-5.60		6.440e-02		-47.880
1		0.00		-6.00		6.493e-02		-45.371
1		0.00		-6.40		6.544e-02		-40.799
1		0.00		-6.80		6.674e-02		-33.861
1		0.00		-7.20		6.681e-02		-41.345
1		0.00		-7.60		6.740e-02		-40.835
1		0.00		-8.00		6.791e-02		-40.090
1		0.00		-8.40		6.711e-02		-37.027
1		0.00		-8.80		6.449e-02		-34.445
1		0.00		-9.20		6.497e-02		-43.025
1		0.00		-9.60		6.266e-02		-40.713
1		0.00		-10.00		5.713e-02		-42.181
1		0.00		-9.60		6.207e-02		-42.208
1		0.00		-9.20		6.403e-02		-39.163
1		0.00		-8.80		6.571e-02		-39.580
1		0.00		-8.40		6.235e-02		-40.593
1		0.00		-8.00		6.262e-02		-43.413
1		0.00		-7.60		6.608e-02		-47.097
1		0.00		-7.20		6.087e-02		-44.142
1		0.00		-6.80		5.965e-02		-44.807
1		0.00		-6.40		5.899e-02		-49.838
1		0.00		-6.00		5.841e-02		-50.909
1		0.00		-5.60		5.492e-02		-48.993
1		0.00		-5.20		5.267e-02		-49.498
1		0.00		-4.80		4.970e-02		-50.570
1		0.00		-4.40		4.506e-02		-51.100
1		0.00		-4.00		4.059e-02		-50.790
1		0.00		-3.60		3.605e-02		-51.830
1		0.00		-3.20		3.153e-02		-50.375
1		0.00		-2.80		2.725e-02		-50.288
1		0.00		-2.40		2.279e-02		-45.767
1		0.00		-2.00		1.847e-02		-45.540
1		0.00		-1.60		1.361e-02		-44.953
1		0.00		-1.20		8.942e-03		-41.258
1		0.00		-0.80		4.863e-03		-32.587
1		0.00		-0.40		2.103e-03		16.524
2		0.00		0.00		4.728e-03		110.096
2		0.00		0.40		8.970e-03		120.402
2		0.00		0.80		1.309e-02		126.757
2		0.00		1.20		1.765e-02		128.751
2		0.00		1.60		2.221e-02		126.902
2		0.00		2.00		2.593e-02		127.807
2		0.00		2.40		3.008e-02		128.263
2		0.00		2.80		3.296e-02		128.682
2		0.00		3.20		3.634e-02		127.697
2		0.00		3.60		3.978e-02		128.607
2		0.00		4.00		4.242e-02		129.637
2		0.00		4.40		4.564e-02		130.566
2		0.00		4.80		4.811e-02		130.045
2		0.00		5.20		5.075e-02		131.029
2		0.00		5.60		5.290e-02		130.728
2		0.00		6.00		5.358e-02		130.411
2		0.00		6.40		5.693e-02		131.782
2		0.00		6.80		5.962e-02		132.267
2		0.00		7.20		6.106e-02		133.071
2		0.00		7.60		6.192e-02		134.871
2		0.00		8.00		6.395e-02		135.437
2		0.00		8.40		6.593e-02		136.788
2		0.00		8.80		6.579e-02		134.693
2		0.00		9.20		6.436e-02		130.027
2		0.00		9.60		6.426e-02		128.719
2		0.00		10.00		6.394e-02		131.032
2		0.00		9.60		6.404e-02		130.155
2		0.00		9.20		6.376e-02		127.425
2		0.00		8.80		6.338e-02		127.518
2		0.00		8.40		6.085e-02		132.520
2		0.00		8.00		5.853e-02		127.905
2		0.00		7.60		5.510e-02		131.139
2		0.00		7.20		5.222e-02		130.068
2		0.00		6.80		4.981e-02		132.027
2		0.00		6.40		4.636e-02		132.097
2		0.00		6.00		4.274e-02		132.697
2		0.00		5.60		3.950e-02		132.716
2		0.00		5.20		3.546e-02		132.369
2		0.00		4.80		3.167e-02		130.858
2		0.00		4.40		2.744e-02		133.427
2		0.00		4.00		2.331e-02		131.512
2		0.00		3.60		1.902e-02		130.994
2		0.00		3.20		1.458e-02		133.190
2		0.00		2.80		1.011e-02		129.422
2		0.00		2.40		5.922e-03		127.774
2		0.00		2.00		2.042e-03		53.567
2		0.00		1.60		4.315e-03		-52.262
2		0.00		1.20		8.774e-03		-52.829
2		0.00		0.80		1.342e-02		-47.886
2		0.00		0.40		1.785e-02		-49.767
2		0.00		0.00		2.254e-02		-50.474
2		0.00		-0.40		2.671e-02		-50.618
2		0.00		-0.80		3.151e-02		-49.276
2		0.00		-1.20		3.614e-02		-50.999
2		0.00		-1.60		4.030e-02		-51.825
2		0.00		-2.00		4.424e-02		-52.066
2		0.00		-2.40		4.841e-02		-52.924
2		0.00		-2.80		5.239e-02		-51.978
2		0.00		-3.20		5.526e-02		-52.808
2		0.00		-3.60		5.759e-02		-52.643
2		0.00		-4.00		6.142e-02		-52.590
2		0.00		-4.40		6.262e-02		-54.041
2		0.00		-4.80		6.405e-02		-51.220
2		0.00		-5.20		6.423e-02		-44.117
2		0.00		-5.60		6.744e-02		-49.178
2		0.00		-6.00		6.683e-02		-46.740
2		0.00		-6.40		6.729e-02		-43.647
2		0.00		-6.80		6.854e-02		-39.322
2		0.00		-7.20		6.711e-02		-36.951
2		0.00		-7.60		6.860e-02		-42.073
2		0.00		-8.00		6.783e-02		-39.784
2		0.00		-8.40		6.627e-02		-38.275
2		0.00		-8.80		6.770e-02		-35.767
2		0.00		-9.20		6.264e-02		-36.271
2		0.00		-9.60		6.139e-02		-41.337
2		0.00		-10.00		5.598e-02		-41.800
2		0.00		-9.60		6.108e-02		-41.833
2		0.00		-9.20		6.528e-02		-41.487
2		0.00		-8.80		6.668e-02		-39.627
2		0.00		-8.40		6.836e-02		-42.473
2		0.00		-8.00		6.512e-02		-39.327
2		0.00		-7.60		6.805e-02		-44.484
2		0.00		-7.20		6.517e-02		-45.305
2		0.00		-6.80		6.529e-02		-46.879
2		0.00		-6.40		6.226e-02		-47.789
2		0.00		-6.00		6.020e-02		-48.806
2		0.00		-5.60		5.613e-02		-49.675
2		0.00		-5.20		5.211e-02		-50.325
2		0.00		-4.80		4.763e-02		-51.356
2		0.00		-4.40		4.248e-02		-52.689
2		0.00		-4.00		3.815e-02		-52.677
2		0.00		-3.60		3.387e-02		-52.966
2		0.00		-3.20		3.008e-02		-49.744
2		0.00		-2.80		2.589e-02		-49.382
2		0.00		-2.40		2.153e-02		-46.564
2		0.00		-2.00		1.751e-02		-47.579
2		0.00		-1.60		1.357e-02		-47.812
2		0.00		-1.20		9.305e-03		-39.766
2		0.00		-0.80		4.952e-03		-37.330
2		0.00		-0.40		1.781e-03		6.128
3		0.00		0.00		4.464e-03		113.503
3		0.00		0.40		8.349e-03		124.482
3		0.00		0.80		1.272e-02		125.197
3		0.00		1.20		1.732e-02		128.311
3		0.00		1.60		2.142e-02		129.013
3		0.00		2.00		2.501e-02		127.624
3		0.00		2.40		2.950e-02		129.539
3		0.00		2.80		3.311e-02		128.384
3		0.00		3.20		3.615e-02		130.659
3		0.00		3.60		3.871e-02		129.146
3		0.00		4.00		4.106e-02		128.931
3		0.00		4.40		4.366e-02		130.103
3		0.00		4.80		4.607e-02		129.884
3		0.00		5.20		4.854e-02		129.096
3		0.00		5.60		5.120e-02		129.220
3		0.00		6.00		5.357e-02		128.266
3		0.00		6.40		5.725e-02		127.281
3		0.00		6.80		6.071e-02		129.700
3		0.00		7.20		6.283e-02		129.360
3		0.00		7.60		6.207e-02		129.330
3		0.00		8.00		6.234e-02		131.908
3		0.00		8.40		6.262e-02		130.887
3		0.00		8.80		6.653e-02		131.806
3		0.00		9.20		6.849e-02		128.554
3		0.00		9.60		6.719e-02		126.112
3		0.00		10.00		6.497e-02		129.293
3		0.00		9.60		6.400e-02		127.903
3		0.00		9.20		6.462e-02		130.050
3		0.00		8.80		6.217e-02		128.890
3		0.00		8.40		5.874e-02		129.984
3		0.00		8.00		5.762e-02		132.032
3		0.00		7.60		5.556e-02		131.580
3		0.00		7.20		5.356e-02		132.939
3		0.00		6.80		5.098e-02		131.135
3		0.00		6.40		4.837e-02		131.442
3		0.00		6.00		4.448e-02		131.911
3		0.00		5.60		4.095e-02		131.849
3		0.00		5.20		3.732e-02		131.823
3		0.00		4.80		3.334e-02		131.691
3		0.00		4.40		2.890e-02		131.332
3		0.00		4.00		2.476e-02		130.636
3		0.00		3.60		2.038e-02		132.277
3		0.00		3.20		1.591e-02		131.496
3		0.00		2.80		1.173e-02		128.426
3		0.00		2.40		7.355e-03		127.022
3		0.00		2.00		2.925e-03		92.692
3		0.00		1.60		2.491e-03		-45.333
3		0.00		1.20		6.593e-03		-48.513
3		0.00		0.80		1.061e-02		-48.369
3		0.00		0.40		1.551e-02		-50.326
3		0.00		0.00		1.941e-02		-50.127
3		0.00		-0.40		2.369e-02		-49.436
3		0.00		-0.80		2.830e-02		-50.166
3		0.00		-1.20		3.264e-02		-50.448
3		0.00		-1.60		3.659e-02		-50.373
3		0.00		-2.00		4.145e-02		-50.682
3		0.00		-2.40		4.546e-02		-52.133
3		0.00		-2.80		4.967e-02		-52.558
3		0.00		-3.20		5.304e-02		-52.044
3		0.00		-3.60		5.729e-02		-54.299
3		0.00		-4.00		5.903e-02		-52.937
3		0.00		-4.40		6.388e-02		-51.809
3		0.00		-4.80		6.515e-02		-51.158
3		0.00		-5.20		6.706e-02		-49.513
3		0.00		-5.60		6.633e-02		-44.720
3		0.00		-6.00		6.686e-02		-47.070
3		0.00		-6.40		6.912e-02		-44.078
3		0.00		-6.80		7.172e-02		-43.186
3		0.00		-7.20		7.077e-02		-42.804
3		0.00		-7.60		7.268e-02		-40.337
3		0.00		-8.00		7.274e-02		-39.341
3		0.00		-8.40		7.324e-02		-40.117
3		0.00		-8.80		6.687e-02		-38.757
3		0.00		-9.20		6.722e-02		-38.940
3		0.00		-9.60		6.446e-02		-40.842
3		0.00		-10.00		5.847e-02		-40.236
3		0.00		-9.60		6.385e-02		-40.778
3		0.00		-9.20		6.396e-02		-35.800
3		0.00		-8.80		6.470e-02		-37.932
3		0.00		-8.40		6.524e-02		-39.607
3		0.00		-8.00		6.424e-02		-41.527
3		0.00		-7.60		6.401e-02		-40.941
3		0.00		-7.20		6.325e-02		-42.100
3		0.00		-6.80		6.067e-02		-46.240
3		0.00		-6.40		5.990e-02		-49.416
3		0.00		-6.00		5.746e-02		-50.495
3		0.00		-5.60		5.391e-02		-50.024
3		0.00		-5.20		5.111e-02		-50.008
3		0.00		-4.80		4.703e-02		-50.750
3		0.00		-4.40		4.325e-02		-51.966
3		0.00		-4.00		3.953e-02		-52.138
3		0.00		-3.60		3.568e-02		-50.076
3		0.00		-3.20		3.171e-02		-50.049
3		0.00		-2.80		2.747e-02		-47.715
3		0.00		-2.40		2.304e-02		-48.072
3		0.00		-2.00		1.889e-02		-48.965
3		0.00		-1.60		1.466e-02		-45.521
3		0.00		-1.20		9.888e-03		-37.661
3		0.00		-0.80		5.590e-03		-36.700
3		0.00		-0.40		2.107e-03		-6.234
4		0.00		0.00		3.944e-03		108.372
4		0.00		0.40		7.966e-03		118.884
4		0.00		0.80		1.231e-02		126.678
4		0.00		1.20		1.652e-02		127.065
4		0.00		1.60		2.085e-02		127.696
4		0.00		2.00		2.487e-02		128.176
4		0.00		2.40		2.821e-02		128.324
4		0.00		2.80		3.237e-02		128.844
4		0.00		3.20		3.598e-02		129.227
4		0.00		3.60		3.855e-02		130.605
4		0.00		4.00		4.160e-02		130.406
4		0.00		4.40		4.459e-02		129.983
4		0.00		4.80		4.783e-02		130.111
4		0.00		5.20		5.039e-02		129.928
4		0.00		5.60		5.311e-02		130.600
4		0.00		6.00		5.546e-02		130.961
4		0.00		6.40		5.714e-02		131.997
4		0.00		6.80		6.097e-02		130.944
4		0.00		7.20		6.257e-02		129.929
4		0.00		7.60		6.329e-02		129.633
4		0.00		8.00		6.285e-02		128.571
4		0.00		8.40		6.129e-02		131.758
4		0.00		8.80		6.124e-02		133.772
4		0.00		9.20		6.294e-02		128.556
4		0.00		9.60		6.153e-02		128.011
4		0.00		10.00		6.048e-02		132.722
4		0.00		9.60		6.102e-02		126.872
4		0.00		9.20		6.185e-02		130.402
4		0.00		8.80		6.223e-02		127.559
4		0.00		8.40		6.093e-02		130.441
4		0.00		8.00		5.946e-02		130.951
4		0.00		7.60		5.717e-02		131.400
4		0.00		7.20		5.458e-02		131.045
4		0.00		6.80		5.191e-02		131.796
4		0.00		6.40		4.742e-02		132.216
4		0.00		6.00		4.434e-02		132.713
4		0.00		5.60		4.136e-02		132.941
4		0.00		5.20		3.710e-02		132.321
4		0.00		4.80		3.303e-02		131.904
4		0.00		4.40		2.929e-02		131.019
4		0.00		4.00		2.480e-02		130.952
4		0.00		3.60		2.065e-02		130.411
4		0.00		3.20		1.692e-02		130.262
4		0.00		2.80		1.204e-02		131.617
4		0.00		2.40		7.825e-03		125.301
4		0.00		2.00		3.409e-03		118.273
4		0.00		1.60		2.073e-03		-48.572
4		0.00		1.20		6.157e-03		-51.917
4		0.00		0.80		1.073e-02		-45.892
4		0.00		0.40		1.559e-02		-49.963
4		0.00		0.00		2.001e-02		-47.819
4		0.00		-0.40		2.450e-02		-49.373
4		0.00		-0.80		2.911e-02		-50.288
4		0.00		-1.20		3.367e-02		-49.653
4		0.00		-1.60		3.782e-02		-50.662
4		0.00		-2.00		4.183e-02		-50.810
4		0.00		-2.40		4.643e-02		-50.416
4		0.00		-2.80		4.983e-02		-51.286
4		0.00		-3.20		5.365e-02		-51.789
4		0.00		-3.60		5.615e-02		-53.555
4		0.00		-4.00		5.938e-02		-52.753
4		0.00		-4.40		6.245e-02		-52.095
4		0.00		-4.80		6.402e-02		-49.575
4		0.00		-5.20		6.457e-02		-47.882
4		0.00		-5.60		6.093e-02		-46.885
4		0.00		-6.00		6.268e-02		-44.447
4		0.00		-6.40		6.369e-02		-42.239
4		0.00		-6.80		6.319e-02		-35.027
4		0.00		-7.20		6.404e-02		-38.495
4		0.00		-7.60		6.852e-02		-40.100
4		0.00		-8.00		6.934e-02		-40.982
4		0.00		-8.40		6.742e-02		-37.113
4		0.00		-8.80		6.748e-02		-39.410
4		0.00		-9.20		6.573e-02		-38.137
4		0.00		-9.60		6.680e-02		-43.302
4		0.00		-10.00		5.765e-02		-42.963
4		0.00		-9.60		6.110e-02		-39.674
4		0.00		-9.20		6.493e-02		-37.824
4		0.00		-8.80		6.336e-02		-38.260
4		0.00		-8.40		6.734e-02		-43.093
4		0.00		-8.00		6.661e-02		-41.069
4		0.00		-7.60		6.697e-02		-42.872
4		0.00		-7.20		6.571e-02		-45.336
4		0.00		-6.80		6.540e-02		-47.753
4		0.00		-6.40		6.233e-02		-47.703
4		0.00		-6.00		5.998e-02		-48.728
4		0.00		-5.60		5.653e-02		-48.998
4		0.00		-5.20		5.281e-02		-49.953
4		0.00		-4.80		4.842e-02		-51.423
4		0.00		-4.40		4.413e-02		-50.826
4		0.00		-4.00		3.982e-02		-52.062
4		0.00		-3.60		3.563e-02		-50.260
4		0.00		-3.20		3.187e-02		-50.749
4		0.00		-2.80		2.716e-02		-48.758
4		0.00		-2.40		2.304e-02		-46.176
4		0.00		-2.00		1.868e-02		-46.501
4		0.00		-1.60		1.426e-02		-43.976
4		0.00		-1.20		1.027e-02		-41.375
4		0.00		-0.80		5.739e-03		-32.092
4		0.00		-0.40		2.101e-03		-1.579
5		0.00		0.00		3.790e-03		99.468
5		0.00		0.40		7.822e-03		119.873
5		0.00		0.80		1.198e-02		125.736
5		0.00		1.20		1.608e-02		124.923
5		0.00		1.60		2.069e-02		127.753
5		0.00		2.00		2.451e-02		126.941
5		0.00		2.40		2.811e-02		128.421
5		0.00		2.80		3.217e-02		129.265
5		0.00		3.20		3.532e-02		129.954
5		0.00		3.60		3.825e-02		129.829
5		0.00		4.00		4.126e-02		130.722
5		0.00		4.40		4.437e-02		130.425
5		0.00		4.80		4.704e-02		129.742
5		0.00		5.20		4.902e-02		130.617
5		0.00		5.60		5.235e-02		129.556
5		0.00		6.00		5.367e-02		130.357
5		0.00		6.40		5.665e-02		130.916
5		0.00		6.80		5.862e-02		131.185
5		0.00		7.20		5.946e-02		130.330
5		0.00		7.60		6.230e-02		129.811
5		0.00		8.00		6.305e-02		130.806
5		0.00		8.40		6.135e-02		131.487
5		0.00		8.80		6.162e-02		130.818
5		0.00		9.20		6.260e-02		134.788
5		0.00		9.60		6.212e-02		132.331
5		0.00		10.00		6.137e-02		131.709
5		0.00		9.60		6.291e-02		134.061
5		0.00		9.20		6.443e-02		126.693
5		0.00		8.80		6.436e-02		129.877
5		0.00		8.40		6.313e-02		129.240
5		0.00		8.00		6.003e-02		129.327
5		0.00		7.60		5.759e-02		129.991
5		0.00		7.20		5.446e-02		129.805
5		0.00		6.80		5.150e-02		128.611
5		0.00		6.40		4.733e-02		129.797
5		0.00		6.00		4.425e-02		129.475
5		0.00		5.60		4.071e-02		129.317
5		0.00		5.20		3.732e-02		130.152
5		0.00		4.80		3.294e-02		130.570
5		0.00		4.40		2.947e-02		131.605
5		0.00		4.00		2.577e-02		129.828
5		0.00		3.60		2.165e-02		130.469
5		0.00		3.20		1.761e-02		129.759
5		0.00		2.80		1.369e-02		130.927
5		0.00		2.40		9.300e-03		129.340
5		0.00		2.00		5.099e-03		121.695
5		0.00		1.60		1.798e-03		28.710
5		0.00		1.20		4.470e-03		-53.199
5		0.00		0.80		9.117e-03		-46.737
5		0.00		0.40		1.336e-02		-49.998
5		0.00		0.00		1.815e-02		-51.266
5		0.00		-0.40		2.199e-02		-48.698
5		0.00		-0.80		2.620e-02		-49.853
5		0.00		-1.20		3.064e-02		-48.885
5		0.00		-1.60		3.407e-02		-50.913
5		0.00		-2.00		3.838e-02		-50.397
5		0.00		-2.40		4.243e-02		-52.299
5		0.00		-2.80		4.690e-02		-51.242
5		0.00		-3.20		5.025e-02		-52.078
5		0.00		-3.60		5.403e-02		-53.337
5		0.00		-4.00		5.672e-02		-53.948
5		0.00		-4.40		5.927e-02		-52.410
5		0.00		-4.80		6.180e-02		-51.485
5		0.00		-5.20		6.344e-02		-47.644
5		0.00		-5.60		6.369e-02		-42.047
5		0.00		-6.00		6.376e-02		-38.608
5		0.00		-6.40		6.248e-02		-43.774
5		0.00		-6.80		6.432e-02		-36.065
5		0.00		-7.20		6.552e-02		-37.557
5		0.00		-7.60		6.760e-02		-43.955
5		0.00		-8.00		6.497e-02		-33.632
5		0.00		-8.40		6.377e-02		-35.520
5		0.00		-8.80		6.279e-02		-36.177
5		0.00		-9.20		6.141e-02		-42.713
5		0.00		-9.60		6.106e-02		-40.977
5		0.00		-10.00		5.523e-02		-35.431
5		0.00		-9.60		5.938e-02		-42.714
5		0.00		-9.20		6.021e-02		-39.652
5		0.00		-8.80		6.226e-02		-38.576
5		0.00		-8.40		6.494e-02		-41.395
5		0.00		-8.00		6.530e-02		-43.937
5		0.00		-7.60		6.478e-02		-44.525
5		0.00		-7.20		6.604e-02		-45.972
5		0.00		-6.80		6.262e-02		-46.340
5		0.00		-6.40		6.130e-02		-47.181
5		0.00		-6.00		5.927e-02		-47.188
5		0.00		-5.60		5.563e-02		-48.729
5		0.00		-5.20		5.244e-02		-49.628
5		0.00		-4.80		4.771e-02		-50.321
5		0.00		-4.40		4.292e-02		-50.575
5		0.00		-4.00		3.889e-02		-49.316
5		0.00		-3.60		3.463e-02		-50.663
5		0.00		-3.20		3.018e-02		-48.932
5		0.00		-2.80		2.606e-02		-49.189
5		0.00		-2.40		2.234e-02		-48.295
5		0.00		-2.00		1.766e-02		-45.241
5		0.00		-1.60		1.328e-02		-44.923
5		0.00		-1.20		9.060e-03		-38.628
5		0.00		-0.80		4.571e-03		-35.549
5		0.00		-0.40		2.193e-03		18.123
6		0.00		0.00		4.552e-03		112.930
6		0.00		0.40		9.161e-03		121.966
6		0.00		0.80		1.327e-02		124.582
6		0.00		1.20		1.775e-02		126.609
6		0.00		1.60		2.163e-02		128.942
6		0.00		2.00		2.618e-02		128.506
6		0.00		2.40		2.963e-02		131.621
6		0.00		2.80		3.320e-02		131.362
6		0.00		3.20		3.622e-02		130.276
6		0.00		3.60		3.895e-02		130.180
6		0.00		4.00		4.187e-02		129.766
6		0.00		4.40		4.453e-02		129.496
6		0.00		4.80		4.696e-02		129.952
6		0.00		5.20		4.971e-02		129.379
6		0.00		5.60		5.201e-02		128.851
6		0.00		6.00		5.464e-02		128.934
6		0.00		6.40		5.677e-02		130.311
6		0.00		6.80		6.009e-02		130.801
6		0.00		7.20		6.189e-02		133.124
6		0.00		7.60		6.311e-02		134.462
6		0.00		8.00		6.508e-02		137.143
6		0.00		8.40		6.612e-02		137.553
6		0.00		8.80		6.784e-02		131.047
6		0.00		9.20		6.549e-02		137.533
6		0.00		9.60		6.664e-02		134.564
6		0.00		10.00		6.384e-02		132.339
6		0.00		9.60		6.592e-02		131.226
6		0.00		9.20		6.788e-02		130.391
6		0.00		8.80		6.664e-02		134.072
6		0.00		8.40		6.331e-02		129.383
6		0.00		8.00		6.197e-02		130.407
6		0.00		7.60		5.688e-02		131.121
6		0.00		7.20		5.525e-02		130.824
6		0.00		6.80		5.222e-02		130.765
6		0.00		6.40		4.875e-02		130.176
6		0.00		6.00		4.559e-02		130.718
6		0.00		5.60		4.228e-02		130.816
6		0.00		5.20		3.824e-02		129.686
6		0.00		4.80		3.434e-02		130.243
6		0.00		4.40		3.108e-02		131.214
6		0.00		4.00		2.705e-02		131.861
6		0.00		3.60		2.362e-02		132.546
6		0.00		3.20		1.919e-02		130.018
6		0.00		2.80		1.456e-02		132.325
6		0.00		2.40		1.038e-02		132.109
6		0.00		2.00		5.614e-03		124.344
6		0.00		1.60		1.878e-03		54.452
6		0.00		1.20		4.043e-03		-48.020
6		0.00		0.80		8.331e-03		-48.131
6		0.00		0.40		1.261e-02		-48.985
6		0.00		0.00		1.704e-02		-48.645
6		0.00		-0.40		2.135e-02		-47.937
6		0.00		-0.80		2.561e-02		-50.418
6		0.00		-1.20		2.980e-02		-50.219
6		0.00		-1.60		3.327e-02		-51.703
6		0.00		-2.00		3.829e-02		-53.252
6		0.00		-2.40		4.215e-02		-53.257
6		0.00		-2.80		4.627e-02		-53.053
6		0.00		-3.20		4.992e-02		-53.528
6		0.00		-3.60		5.425e-02		-53.520
6		0.00		-4.00		5.892e-02		-53.257
6		0.00		-4.40		6.180e-02		-52.271
6		0.00		-4.80		6.665e-02		-50.001
6		0.00		-5.20		6.592e-02		-46.283
6		0.00		-5.60		6.620e-02		-46.975
6		0.00		-6.00		6.671e-02		-44.098
6		0.00		-6.40		6.775e-02		-40.682
6		0.00		-6.80		6.853e-02		-40.841
6		0.00		-7.20		6.926e-02		-41.898
6		0.00		-7.60		6.845e-02		-38.487
6		0.00		-8.00		6.898e-02		-34.591
6		0.00		-8.40		6.442e-02		-37.114
6		0.00		-8.80		6.484e-02		-37.179
6		0.00		-9.20		6.050e-02		-38.510
6		0.00		-9.60		5.888e-02		-34.377
6		0.00		-10.00		5.722e-02		-40.864
6		0.00		-9.60		5.916e-02		-38.122
6		0.00		-9.20		6.360e-02		-39.062
6		0.00		-8.80		6.457e-02		-37.937
6		0.00		-8.40		6.815e-02		-38.650
6		0.00		-8.00		6.864e-02		-41.295
6		0.00		-7.60		6.690e-02		-44.721
6		0.00		-7.20		6.372e-02		-43.761
6		0.00		-6.80		6.403e-02		-45.158
6		0.00		-6.40		6.190e-02		-47.953
6		0.00		-6.00		5.948e-02		-48.282
6		0.00		-5.60		5.614e-02		-48.815
6		0.00		-5.20		5.308e-02		-50.005
6		0.00		-4.80		4.884e-02		-49.980
6		0.00		-4.40		4.409e-02		-51.379
6		0.00		-4.00		3.901e-02		-51.903
6		0.00		-3.60		3.506e-02		-51.168
6		0.00		-3.20		3.121e-02		-48.943
6		0.00		-2.80		2.735e-02		-48.531
6		0.00		-2.40		2.278e-02		-48.800
6		0.00		-2.00		1.828e-02		-45.686
6		0.00		-1.60		1.410e-02		-43.358
6		0.00		-1.20		9.696e-03		-40.108
6		0.00		-0.80		5.626e-03		-32.449
6		0.00		-0.40		2.207e-03		-5.835
7		0.00		0.00		3.937e-03		101.726
7		0.00		0.40		7.882e-03		118.126
7		0.00		0.80		1.218e-02		124.850
7		0.00		1.20		1.658e-02		126.243
7		0.00		1.60		2.067e-02		125.440
7		0.00		2.00		2.423e-02		129.309
7		0.00		2.40		2.863e-02		129.816
7		0.00		2.80		3.240e-02		130.606
7		0.00		3.20		3.546e-02		131.156
7		0.00		3.60		3.938e-02		130.321
7		0.00		4.00		4.206e-02		131.649
7		0.00		4.40		4.431e-02		131.252
7		0.00		4.80		4.691e-02		131.807
7		0.00		5.20		4.937e-02		132.792
7		0.00		5.60		5.246e-02		131.987
7		0.00		6.00		5.411e-02		132.133
7		0.00		6.40		5.699e-02		131.856
7		0.00		6.80		5.702e-02		130.481
7		0.00		7.20		5.871e-02		131.176
7		0.00		7.60		6.172e-02		133.046
7		0.00		8.00		6.353e-02		132.849
7		0.00		8.40		6.303e-02		134.118
7		0.00		8.80		6.230e-02		131.927
7		0.00		9.20		6.320e-02		130.439
7		0.00		9.60		6.391e-02		131.496
7		0.00		10.00		6.577e-02		132.296
7		0.00		9.60		6.422e-02		130.241
7		0.00		9.20		6.373e-02		134.344
7		0.00		8.80		6.309e-02		130.980
7		0.00		8.40		6.149e-02		129.024
7		0.00		8.00		5.939e-02		129.801
7		0.00		7.60		5.708e-02		131.254
7		0.00		7.20		5.409e-02		130.102
7		0.00		6.80		5.137e-02		130.177
7		0.00		6.40		4.836e-02		129.785
7		0.00		6.00		4.487e-02		130.549
7		0.00		5.60		4.141e-02		131.039
7		0.00		5.20		3.750e-02		131.423
7		0.00		4.80		3.409e-02		131.170
7		0.00		4.40		3.047e-02		131.402
7		0.00		4.00		2.660e-02		131.343
7		0.00		3.60		2.243e-02		131.258
7		0.00		3.20		1.851e-02		130.941
7		0.00		2.80		1.451e-02		130.630
7		0.00		2.40		9.978e-03		132.802
7		0.00		2.00		5.526e-03		129.471
7		0.00		1.60		2.010e-03		64.195
7		0.00		1.20		3.979e-03		-44.036
7		0.00		0.80		8.341e-03		-46.509
7		0.00		0.40		1.307e-02		-48.451
7		0.00		0.00		1.697e-02		-48.551
7		0.00		-0.40		2.144e-02		-49.932
7		0.00		-0.80		2.619e-02		-50.159
7		0.00		-1.20		3.062e-02		-49.941
7		0.00		-1.60		3.441e-02		-51.636
7		0.00		-2.00		3.898e-02		-50.929
7		0.00		-2.40		4.326e-02		-52.178
7		0.00		-2.80		4.703e-02		-52.156
7		0.00		-3.20		5.168e-02		-53.012
7		0.00		-3.60		5.571e-02		-52.310
7		0.00		-4.00		5.957e-02		-53.019
7		0.00		-4.40		6.182e-02		-52.348
7		0.00		-4.80		6.350e-02		-48.868
7		0.00		-5.20		6.470e-02		-47.826
7		0.00		-5.60		6.623e-02		-46.107
7		0.00		-6.00		6.900e-02		-42.466
7		0.00		-6.40		6.958e-02		-39.562
7		0.00		-6.80		6.706e-02		-41.015
7		0.00		-7.20		6.860e-02		-39.086
7		0.00		-7.60		6.963e-02		-37.343
7		0.00		-8.00		6.849e-02		-41.045
7		0.00		-8.40		6.749e-02		-38.230
7		0.00		-8.80		6.725e-02		-35.108
7		0.00		-9.20		6.355e-02		-37.476
7		0.00		-9.60		6.127e-02		-39.596
7		0.00		-10.00		5.612e-02		-41.890
7		0.00		-9.60		6.082e-02		-41.486
7		0.00		-9.20		6.618e-02		-40.100
7		0.00		-8.80		6.802e-02		-39.437
7		0.00		-8.40		6.564e-02		-35.097
7		0.00		-8.00		6.798e-02		-42.723
7		0.00		-7.60		6.839e-02		-39.740
7		0.00		-7.20		6.935e-02		-45.288
7		0.00		-6.80		6.637e-02		-46.699
7		0.00		-6.40		6.545e-02		-46.423
7		0.00		-6.00		6.156e-02		-48.105
7		0.00		-5.60		5.732e-02		-48.985
7		0.00		-5.20		5.299e-02		-49.073
7		0.00		-4.80		4.877e-02		-49.201
7		0.00		-4.40		4.449e-02		-50.278
7		0.00		-4.00		3.950e-02		-51.458
7		0.00		-3.60		3.543e-02		-50.295
7		0.00		-3.20		3.130e-02		-48.979
7		0.00		-2.80		2.643e-02		-49.828
7		0.00		-2.40		2.266e-02		-48.548
7		0.00		-2.00		1.833e-02		-47.934
7		0.00		-1.60		1.416e-02		-42.924
7		0.00		-1.20		9.801e-03		-42.190
7		0.00		-0.80		5.500e-03		-32.379
7		0.00		-0.40		2.166e-03		-2.514
8		0.00		0.00		3.831e-03		100.788
8		0.00		0.40		7.676e-03		122.193
8		0.00		0.80		1.148e-02		122.600
8		0.00		1.20		1.588e-02		125.713
8		0.00		1.60		2.002e-02		128.431
8		0.00		2.00		2.420e-02		130.149
8		0.00		2.40		2.839e-02		130.468
8		0.00		2.80		3.172e-02		129.647
8		0.00		3.20		3.508e-02		129.532
8		0.00		3.60		3.850e-02		130.172
8		0.00		4.00		4.165e-02		130.486
8		0.00		4.40		4.558e-02		131.822
8		0.00		4.80		4.716e-02		131.175
8		0.00		5.20		5.017e-02		131.571
8		0.00		5.60		5.305e-02		131.870
8		0.00		6.00		5.544e-02		131.217
8		0.00		6.40		5.840e-02		132.198
8		0.00		6.80		6.004e-02		131.576
8		0.00		7.20		6.213e-02		131.694
8		0.00		7.60		6.309e-02		131.807
8		0.00		8.00		6.553e-02		129.902
8		0.00		8.40		6.535e-02		134.645
8		0.00		8.80		6.314e-02		132.303
8		0.00		9.20		6.481e-02		132.771
8		0.00		9.60		6.316e-02		131.337
8		0.00		10.00		6.285e-02		129.432
8		0.00		9.60		6.350e-02		135.272
8		0.00		9.20		6.700e-02		129.036
8		0.00		8.80		6.392e-02		134.387
8		0.00		8.40		6.085e-02		131.923
8		0.00		8.00		5.904e-02		133.322
8		0.00		7.60		5.696e-02		133.128
8		0.00		7.20		5.533e-02		132.436
8		0.00		6.80		5.285e-02		132.563
8		0.00		6.40		4.990e-02		131.638
8		0.00		6.00		4.625e-02		131.701
8		0.00		5.60		4.229e-02		131.587
8		0.00		5.20		3.790e-02		132.263
8		0.00		4.80		3.441e-02		130.607
8		0.00		4.40		3.026e-02		131.139
8		0.00		4.00		2.613e-02		130.249
8		0.00		3.60		2.222e-02		130.693
8		0.00		3.20		1.776e-02		130.929
8		0.00		2.80		1.339e-02		132.988
8		0.00		2.40		9.178e-03		135.962
8		0.00		2.00		4.693e-03		128.202
8		0.00		1.60		1.719e-03		9.043
8		0.00		1.20		4.381e-03		-60.771
8		0.00		0.80		8.895e-03		-48.458
8		0.00		0.40		1.353e-02		-46.042
8		0.00		0.00		1.760e-02		-47.270
8		0.00		-0.40		2.233e-02		-49.089
8		0.00		-0.80		2.675e-02		-49.183
8		0.00		-1.20		3.117e-02		-50.993
8		0.00		-1.60		3.537e-02		-49.995
8		0.00		-2.00		3.974e-02		-52.254
8		0.00		-2.40		4.352e-02		-51.299
8		0.00		-2.80		4.768e-02		-52.728
8		0.00		-3.20		5.195e-02		-53.298
8		0.00		-3.60		5.444e-02		-51.684
8		0.00		-4.00		5.817e-02		-52.252
8		0.00		-4.40		6.163e-02		-51.325
8		0.00		-4.80		6.362e-02		-50.074
8		0.00		-5.20		6.505e-02		-47.765
8		0.00		-5.60		6.585e-02		-46.099
8		0.00		-6.00		6.851e-02		-43.829
8		0.00		-6.40		6.806e-02		-41.892
8		0.00		-6.80		6.988e-02		-41.765
8		0.00		-7.20		6.868e-02		-38.467
8		0.00		-7.60		6.593e-02		-37.063
8		0.00		-8.00		7.052e-02		-42.767
8		0.00		-8.40		6.765e-02		-37.788
8		0.00		-8.80		6.572e-02		-36.618
8		0.00		-9.20		6.419e-02		-32.741
8		0.00		-9.60		6.504e-02		-41.386
8		0.00		-10.00		5.758e-02		-41.973
8		0.00		-9.60		6.191e-02		-38.714
8		0.00		-9.20		6.429e-02		-38.283
8		0.00		-8.80		6.714e-02		-34.512
8		0.00		-8.40		6.751e-02		-35.122
8		0.00		-8.00		6.731e-02		-39.463
8		0.00		-7.60		6.702e-02		-43.568
8		0.00		-7.20		6.397e-02		-45.188
8		0.00		-6.80		6.354e-02		-46.933
8		0.00		-6.40		6.049e-02		-49.488
8		0.00		-6.00		5.885e-02		-48.995
8		0.00		-5.60		5.478e-02		-48.763
8		0.00		-5.20		5.171e-02		-49.448
8		0.00		-4.80		4.843e-02		-48.937
8		0.00		-4.40		4.463e-02		-49.313
8		0.00		-4.00		4.073e-02		-50.148
8		0.00		-3.60		3.699e-02		-49.055
8		0.00		-3.20		3.286e-02		-49.176
8		0.00		-2.80		2.841e-02		-48.043
8		0.00		-2.40		2.402e-02		-47.101
8		0.00		-2.00		1.961e-02		-47.285
8		0.00		-1.60		1.514e-02		-44.705
8		0.00		-1.20		1.090e-02		-41.182
8		0.00		-0.80		6.422e-03		-34.201
8		0.00		-0.40		2.317e-03		-3.684
