# Date of analysis: 2023-10-05 17;24
# 
# Loop index	Read Volt (V)	Write Volt (V)	Amplitude (a.u)	Phase (°)	
1		0.00		0.00		8.844e-03		-43.926
1		0.00		0.40		4.207e-03		-32.205
1		0.00		0.80		1.919e-03		51.569
1		0.00		1.20		5.548e-03		115.310
1		0.00		1.60		1.014e-02		128.972
1		0.00		2.00		1.444e-02		126.306
1		0.00		2.40		1.855e-02		128.771
1		0.00		2.80		2.299e-02		131.307
1		0.00		3.20		2.678e-02		130.589
1		0.00		3.60		3.103e-02		129.559
1		0.00		4.00		3.379e-02		131.547
1		0.00		4.40		3.723e-02		130.338
1		0.00		4.80		4.050e-02		131.413
1		0.00		5.20		4.415e-02		130.011
1		0.00		5.60		4.683e-02		131.736
1		0.00		6.00		4.944e-02		131.547
1		0.00		6.40		5.244e-02		132.034
1		0.00		6.80		5.325e-02		132.299
1		0.00		7.20		5.622e-02		131.868
1		0.00		7.60		5.728e-02		135.137
1		0.00		8.00		5.935e-02		135.655
1		0.00		8.40		6.097e-02		134.944
1		0.00		8.80		5.978e-02		128.651
1		0.00		9.20		6.451e-02		133.729
1		0.00		9.60		6.132e-02		134.388
1		0.00		10.00		6.048e-02		133.553
1		0.00		9.60		6.164e-02		132.682
1		0.00		9.20		5.919e-02		132.677
1		0.00		8.80		6.262e-02		132.287
1		0.00		8.40		5.781e-02		135.127
1		0.00		8.00		5.523e-02		131.712
1		0.00		7.60		5.443e-02		132.359
1		0.00		7.20		5.033e-02		132.513
1		0.00		6.80		4.822e-02		132.183
1		0.00		6.40		4.516e-02		133.426
1		0.00		6.00		4.162e-02		131.198
1		0.00		5.60		3.910e-02		131.160
1		0.00		5.20		3.473e-02		133.677
1		0.00		4.80		3.153e-02		131.877
1		0.00		4.40		2.828e-02		133.760
1		0.00		4.00		2.354e-02		133.165
1		0.00		3.60		1.990e-02		132.959
1		0.00		3.20		1.506e-02		132.933
1		0.00		2.80		1.045e-02		131.467
1		0.00		2.40		6.046e-03		128.893
1		0.00		2.00		2.177e-03		67.116
1		0.00		1.60		3.762e-03		-54.489
1		0.00		1.20		8.060e-03		-46.781
1		0.00		0.80		1.260e-02		-51.052
1		0.00		0.40		1.789e-02		-50.898
1		0.00		0.00		2.215e-02		-49.478
1		0.00		-0.40		2.739e-02		-49.411
1		0.00		-0.80		3.075e-02		-49.877
1		0.00		-1.20		3.570e-02		-51.792
1		0.00		-1.60		3.937e-02		-52.138
1		0.00		-2.00		4.259e-02		-51.488
1		0.00		-2.40		4.673e-02		-52.077
1		0.00		-2.80		4.956e-02		-51.763
1		0.00		-3.20		5.248e-02		-53.037
1		0.00		-3.60		5.440e-02		-51.653
1		0.00		-4.00		5.833e-02		-52.376
1		0.00		-4.40		5.883e-02		-53.841
1		0.00		-4.80		5.967e-02		-51.925
1		0.00		-5.20		6.480e-02		-49.007
1		0.00		-5.60		6.177e-02		-52.047
1		0.00		-6.00		6.239e-02		-43.615
1		0.00		-6.40		6.741e-02		-43.363
1		0.00		-6.80		6.763e-02		-41.533
1		0.00		-7.20		6.748e-02		-49.440
1		0.00		-7.60		6.909e-02		-45.214
1		0.00		-8.00		6.935e-02		-36.812
1		0.00		-8.40		6.828e-02		-38.387
1		0.00		-8.80		6.489e-02		-34.624
1		0.00		-9.20		6.653e-02		-33.517
1		0.00		-9.60		6.035e-02		-46.602
1		0.00		-10.00		5.839e-02		-40.868
1		0.00		-9.60		6.140e-02		-45.264
1		0.00		-9.20		6.438e-02		-35.954
1		0.00		-8.80		6.602e-02		-36.550
1		0.00		-8.40		6.278e-02		-44.407
1		0.00		-8.00		6.684e-02		-42.480
1		0.00		-7.60		6.748e-02		-42.132
1		0.00		-7.20		6.276e-02		-42.617
1		0.00		-6.80		6.297e-02		-45.364
1		0.00		-6.40		5.962e-02		-46.362
1		0.00		-6.00		6.033e-02		-47.680
1		0.00		-5.60		5.682e-02		-47.298
1		0.00		-5.20		5.461e-02		-49.201
1		0.00		-4.80		5.216e-02		-50.071
1		0.00		-4.40		4.721e-02		-51.071
1		0.00		-4.00		4.353e-02		-50.827
1		0.00		-3.60		3.963e-02		-48.583
1		0.00		-3.20		3.517e-02		-49.990
1		0.00		-2.80		3.208e-02		-49.503
1		0.00		-2.40		2.647e-02		-48.245
1		0.00		-2.00		2.258e-02		-46.977
1		0.00		-1.60		1.783e-02		-45.459
1		0.00		-1.20		1.301e-02		-42.773
1		0.00		-0.80		8.538e-03		-41.073
1		0.00		-0.40		4.175e-03		-40.596
2		0.00		0.00		2.178e-03		58.449
2		0.00		0.40		6.255e-03		120.755
2		0.00		0.80		9.912e-03		126.409
2		0.00		1.20		1.507e-02		126.047
2		0.00		1.60		1.919e-02		127.875
2		0.00		2.00		2.253e-02		126.816
2		0.00		2.40		2.752e-02		128.861
2		0.00		2.80		3.035e-02		128.841
2		0.00		3.20		3.453e-02		129.226
2		0.00		3.60		3.711e-02		129.372
2		0.00		4.00		3.982e-02		129.754
2		0.00		4.40		4.349e-02		131.569
2		0.00		4.80		4.465e-02		130.069
2		0.00		5.20		4.835e-02		130.637
2		0.00		5.60		4.966e-02		131.517
2		0.00		6.00		5.302e-02		131.167
2		0.00		6.40		5.519e-02		131.788
2		0.00		6.80		5.636e-02		131.952
2		0.00		7.20		5.971e-02		134.027
2		0.00		7.60		5.887e-02		131.310
2		0.00		8.00		6.288e-02		134.399
2		0.00		8.40		6.433e-02		133.563
2		0.00		8.80		6.224e-02		131.577
2		0.00		9.20		6.372e-02		129.567
2		0.00		9.60		6.625e-02		128.587
2		0.00		10.00		6.315e-02		137.608
2		0.00		9.60		6.723e-02		130.079
2		0.00		9.20		6.393e-02		129.847
2		0.00		8.80		6.243e-02		132.998
2		0.00		8.40		6.067e-02		134.482
2		0.00		8.00		5.609e-02		132.210
2		0.00		7.60		5.698e-02		132.994
2		0.00		7.20		5.212e-02		134.745
2		0.00		6.80		4.969e-02		131.854
2		0.00		6.40		4.810e-02		131.703
2		0.00		6.00		4.504e-02		133.245
2		0.00		5.60		4.062e-02		131.234
2		0.00		5.20		3.812e-02		133.437
2		0.00		4.80		3.419e-02		133.017
2		0.00		4.40		3.055e-02		132.176
2		0.00		4.00		2.657e-02		133.897
2		0.00		3.60		2.282e-02		131.966
2		0.00		3.20		1.869e-02		131.913
2		0.00		2.80		1.370e-02		132.237
2		0.00		2.40		9.693e-03		134.471
2		0.00		2.00		5.469e-03		131.526
2		0.00		1.60		1.853e-03		38.601
2		0.00		1.20		3.950e-03		-60.466
2		0.00		0.80		8.747e-03		-48.244
2		0.00		0.40		1.338e-02		-51.681
2		0.00		0.00		1.775e-02		-50.462
2		0.00		-0.40		2.207e-02		-49.675
2		0.00		-0.80		2.651e-02		-51.387
2		0.00		-1.20		3.196e-02		-50.148
2		0.00		-1.60		3.486e-02		-50.218
2		0.00		-2.00		3.973e-02		-50.468
2		0.00		-2.40		4.300e-02		-51.109
2		0.00		-2.80		4.526e-02		-52.758
2		0.00		-3.20		4.974e-02		-52.468
2		0.00		-3.60		5.139e-02		-53.007
2		0.00		-4.00		5.662e-02		-53.100
2		0.00		-4.40		5.625e-02		-51.588
2		0.00		-4.80		5.928e-02		-50.773
2		0.00		-5.20		6.127e-02		-49.820
2		0.00		-5.60		6.120e-02		-49.570
2		0.00		-6.00		6.358e-02		-43.124
2		0.00		-6.40		6.514e-02		-41.986
2		0.00		-6.80		6.514e-02		-40.633
2		0.00		-7.20		6.832e-02		-40.872
2		0.00		-7.60		7.282e-02		-42.775
2		0.00		-8.00		6.754e-02		-40.401
2		0.00		-8.40		6.910e-02		-39.054
2		0.00		-8.80		6.769e-02		-43.904
2		0.00		-9.20		6.690e-02		-46.053
2		0.00		-9.60		6.188e-02		-41.304
2		0.00		-10.00		5.602e-02		-44.127
2		0.00		-9.60		6.277e-02		-39.826
2		0.00		-9.20		6.476e-02		-41.777
2		0.00		-8.80		6.368e-02		-34.625
2		0.00		-8.40		6.736e-02		-41.653
2		0.00		-8.00		6.558e-02		-38.468
2		0.00		-7.60		6.375e-02		-41.037
2		0.00		-7.20		6.488e-02		-44.131
2		0.00		-6.80		6.273e-02		-47.460
2		0.00		-6.40		6.187e-02		-46.837
2		0.00		-6.00		5.731e-02		-48.055
2		0.00		-5.60		5.510e-02		-47.665
2		0.00		-5.20		5.406e-02		-50.328
2		0.00		-4.80		4.934e-02		-49.248
2		0.00		-4.40		4.544e-02		-50.210
2		0.00		-4.00		4.168e-02		-50.582
2		0.00		-3.60		3.806e-02		-49.941
2		0.00		-3.20		3.346e-02		-48.648
2		0.00		-2.80		3.015e-02		-50.154
2		0.00		-2.40		2.560e-02		-47.365
2		0.00		-2.00		2.077e-02		-47.303
2		0.00		-1.60		1.744e-02		-47.866
2		0.00		-1.20		1.218e-02		-42.429
2		0.00		-0.80		7.634e-03		-33.253
2		0.00		-0.40		3.422e-03		-22.076
3		0.00		0.00		2.493e-03		71.554
3		0.00		0.40		6.650e-03		120.654
3		0.00		0.80		1.113e-02		127.676
3		0.00		1.20		1.483e-02		127.269
3		0.00		1.60		1.997e-02		128.661
3		0.00		2.00		2.378e-02		129.411
3		0.00		2.40		2.677e-02		128.961
3		0.00		2.80		3.095e-02		131.282
3		0.00		3.20		3.350e-02		130.123
3		0.00		3.60		3.680e-02		128.126
3		0.00		4.00		4.033e-02		131.975
3		0.00		4.40		4.203e-02		130.920
3		0.00		4.80		4.591e-02		129.828
3		0.00		5.20		4.758e-02		132.816
3		0.00		5.60		4.981e-02		130.679
3		0.00		6.00		5.266e-02		133.008
3		0.00		6.40		5.384e-02		131.794
3		0.00		6.80		5.714e-02		133.598
3		0.00		7.20		5.742e-02		133.457
3		0.00		7.60		6.060e-02		132.844
3		0.00		8.00		6.500e-02		133.472
3		0.00		8.40		6.287e-02		136.325
3		0.00		8.80		6.300e-02		134.282
3		0.00		9.20		6.737e-02		132.367
3		0.00		9.60		6.554e-02		129.587
3		0.00		10.00		6.394e-02		131.797
3		0.00		9.60		6.592e-02		132.379
3		0.00		9.20		6.158e-02		134.434
3		0.00		8.80		6.276e-02		132.178
3		0.00		8.40		6.190e-02		133.394
3		0.00		8.00		5.824e-02		134.747
3		0.00		7.60		5.587e-02		133.937
3		0.00		7.20		5.455e-02		132.902
3		0.00		6.80		5.134e-02		132.858
3		0.00		6.40		4.791e-02		133.041
3		0.00		6.00		4.506e-02		132.139
3		0.00		5.60		4.352e-02		133.112
3		0.00		5.20		3.992e-02		132.917
3		0.00		4.80		3.517e-02		131.168
3		0.00		4.40		3.222e-02		132.774
3		0.00		4.00		2.857e-02		133.478
3		0.00		3.60		2.403e-02		133.047
3		0.00		3.20		2.083e-02		133.707
3		0.00		2.80		1.627e-02		132.482
3		0.00		2.40		1.190e-02		129.653
3		0.00		2.00		7.367e-03		132.537
3		0.00		1.60		3.060e-03		104.524
3		0.00		1.20		2.547e-03		-47.388
3		0.00		0.80		7.096e-03		-46.982
3		0.00		0.40		1.176e-02		-49.282
3		0.00		0.00		1.601e-02		-52.038
3		0.00		-0.40		2.044e-02		-48.213
3		0.00		-0.80		2.494e-02		-49.466
3		0.00		-1.20		2.947e-02		-51.355
3		0.00		-1.60		3.292e-02		-51.223
3		0.00		-2.00		3.660e-02		-51.235
3		0.00		-2.40		4.084e-02		-52.778
3		0.00		-2.80		4.447e-02		-52.438
3		0.00		-3.20		4.691e-02		-53.329
3		0.00		-3.60		5.050e-02		-53.478
3		0.00		-4.00		5.336e-02		-52.469
3		0.00		-4.40		5.597e-02		-52.203
3		0.00		-4.80		5.855e-02		-48.842
3		0.00		-5.20		6.238e-02		-48.245
3		0.00		-5.60		6.335e-02		-46.397
3		0.00		-6.00		6.461e-02		-47.048
3		0.00		-6.40		6.282e-02		-44.374
3		0.00		-6.80		6.779e-02		-42.454
3		0.00		-7.20		6.535e-02		-43.249
3		0.00		-7.60		6.565e-02		-41.514
3		0.00		-8.00		6.656e-02		-38.482
3		0.00		-8.40		7.012e-02		-40.482
3		0.00		-8.80		6.834e-02		-36.602
3		0.00		-9.20		6.592e-02		-40.132
3		0.00		-9.60		6.394e-02		-37.950
3		0.00		-10.00		5.702e-02		-39.687
3		0.00		-9.60		6.091e-02		-42.442
3		0.00		-9.20		6.203e-02		-37.669
3		0.00		-8.80		6.621e-02		-41.362
3		0.00		-8.40		6.697e-02		-39.264
3		0.00		-8.00		6.789e-02		-43.919
3		0.00		-7.60		6.253e-02		-42.772
3		0.00		-7.20		6.727e-02		-44.147
3		0.00		-6.80		6.460e-02		-45.054
3		0.00		-6.40		6.116e-02		-48.453
3		0.00		-6.00		5.867e-02		-49.062
3		0.00		-5.60		5.829e-02		-48.499
3		0.00		-5.20		5.527e-02		-49.210
3		0.00		-4.80		5.048e-02		-50.257
3		0.00		-4.40		4.661e-02		-50.423
3		0.00		-4.00		4.288e-02		-50.011
3		0.00		-3.60		3.922e-02		-51.293
3		0.00		-3.20		3.512e-02		-51.438
3		0.00		-2.80		3.023e-02		-48.824
3		0.00		-2.40		2.566e-02		-47.285
3		0.00		-2.00		2.151e-02		-46.578
3		0.00		-1.60		1.767e-02		-45.988
3		0.00		-1.20		1.242e-02		-41.424
3		0.00		-0.80		8.073e-03		-42.927
3		0.00		-0.40		3.527e-03		-22.432
4		0.00		0.00		2.316e-03		59.111
4		0.00		0.40		6.063e-03		117.811
4		0.00		0.80		1.037e-02		124.035
4		0.00		1.20		1.434e-02		123.830
4		0.00		1.60		1.850e-02		124.729
4		0.00		2.00		2.256e-02		128.771
4		0.00		2.40		2.582e-02		129.152
4		0.00		2.80		2.927e-02		129.522
4		0.00		3.20		3.281e-02		128.701
4		0.00		3.60		3.590e-02		129.016
4		0.00		4.00		4.002e-02		131.503
4		0.00		4.40		4.330e-02		132.615
4		0.00		4.80		4.547e-02		130.944
4		0.00		5.20		4.792e-02		131.123
4		0.00		5.60		5.171e-02		130.874
4		0.00		6.00		5.306e-02		134.139
4		0.00		6.40		5.489e-02		133.983
4		0.00		6.80		5.698e-02		133.034
4		0.00		7.20		5.983e-02		132.434
4		0.00		7.60		6.192e-02		135.165
4		0.00		8.00		6.033e-02		133.715
4		0.00		8.40		6.179e-02		134.555
4		0.00		8.80		6.494e-02		133.007
4		0.00		9.20		6.619e-02		134.921
4		0.00		9.60		6.427e-02		132.587
4		0.00		10.00		6.144e-02		133.212
4		0.00		9.60		5.954e-02		128.981
4		0.00		9.20		6.167e-02		127.807
4		0.00		8.80		6.436e-02		133.752
4		0.00		8.40		5.902e-02		134.137
4		0.00		8.00		5.620e-02		133.399
4		0.00		7.60		5.695e-02		132.933
4		0.00		7.20		5.396e-02		131.695
4		0.00		6.80		5.325e-02		133.244
4		0.00		6.40		4.930e-02		132.393
4		0.00		6.00		4.643e-02		133.040
4		0.00		5.60		4.265e-02		133.050
4		0.00		5.20		3.923e-02		132.055
4		0.00		4.80		3.596e-02		132.679
4		0.00		4.40		3.299e-02		133.297
4		0.00		4.00		2.823e-02		133.935
4		0.00		3.60		2.446e-02		132.957
4		0.00		3.20		2.058e-02		131.437
4		0.00		2.80		1.602e-02		133.144
4		0.00		2.40		1.191e-02		137.231
4		0.00		2.00		6.980e-03		131.021
4		0.00		1.60		3.183e-03		108.513
4		0.00		1.20		2.532e-03		-51.856
4		0.00		0.80		6.568e-03		-55.061
4		0.00		0.40		1.144e-02		-47.598
4		0.00		0.00		1.559e-02		-46.614
4		0.00		-0.40		1.987e-02		-47.523
4		0.00		-0.80		2.483e-02		-50.903
4		0.00		-1.20		2.931e-02		-50.921
4		0.00		-1.60		3.315e-02		-50.542
4		0.00		-2.00		3.713e-02		-50.167
4		0.00		-2.40		4.147e-02		-51.523
4		0.00		-2.80		4.601e-02		-52.433
4		0.00		-3.20		4.920e-02		-50.975
4		0.00		-3.60		5.232e-02		-51.603
4		0.00		-4.00		5.426e-02		-51.523
4		0.00		-4.40		5.810e-02		-51.994
4		0.00		-4.80		5.941e-02		-50.497
4		0.00		-5.20		6.204e-02		-48.645
4		0.00		-5.60		6.409e-02		-47.257
4		0.00		-6.00		6.471e-02		-46.442
4		0.00		-6.40		6.364e-02		-43.958
4		0.00		-6.80		6.447e-02		-43.970
4		0.00		-7.20		6.736e-02		-40.873
4		0.00		-7.60		6.917e-02		-41.588
4		0.00		-8.00		6.854e-02		-41.318
4		0.00		-8.40		6.751e-02		-38.146
4		0.00		-8.80		6.396e-02		-37.759
4		0.00		-9.20		6.583e-02		-41.969
4		0.00		-9.60		6.063e-02		-39.188
4		0.00		-10.00		5.825e-02		-42.787
4		0.00		-9.60		5.939e-02		-42.506
4		0.00		-9.20		6.453e-02		-38.286
4		0.00		-8.80		6.561e-02		-42.232
4		0.00		-8.40		6.547e-02		-41.476
4		0.00		-8.00		6.964e-02		-41.582
4		0.00		-7.60		6.456e-02		-44.383
4		0.00		-7.20		6.300e-02		-45.194
4		0.00		-6.80		6.170e-02		-43.279
4		0.00		-6.40		6.282e-02		-47.659
4		0.00		-6.00		6.175e-02		-47.758
4		0.00		-5.60		5.716e-02		-48.762
4		0.00		-5.20		5.325e-02		-48.827
4		0.00		-4.80		4.957e-02		-50.533
4		0.00		-4.40		4.504e-02		-51.979
4		0.00		-4.00		4.250e-02		-52.220
4		0.00		-3.60		3.798e-02		-51.321
4		0.00		-3.20		3.315e-02		-49.398
4		0.00		-2.80		2.850e-02		-49.131
4		0.00		-2.40		2.442e-02		-48.283
4		0.00		-2.00		2.067e-02		-48.477
4		0.00		-1.60		1.621e-02		-44.133
4		0.00		-1.20		1.161e-02		-44.083
4		0.00		-0.80		7.471e-03		-38.062
4		0.00		-0.40		3.097e-03		-57.327
5		0.00		0.00		2.342e-03		73.490
5		0.00		0.40		6.124e-03		111.169
5		0.00		0.80		1.032e-02		125.811
5		0.00		1.20		1.440e-02		126.244
5		0.00		1.60		1.892e-02		128.714
5		0.00		2.00		2.249e-02		130.560
5		0.00		2.40		2.571e-02		131.121
5		0.00		2.80		2.933e-02		128.747
5		0.00		3.20		3.338e-02		130.456
5		0.00		3.60		3.665e-02		131.892
5		0.00		4.00		3.852e-02		129.454
5		0.00		4.40		4.010e-02		129.139
5		0.00		4.80		4.400e-02		131.245
5		0.00		5.20		4.591e-02		132.857
5		0.00		5.60		4.734e-02		130.961
5		0.00		6.00		4.919e-02		130.056
5		0.00		6.40		5.263e-02		132.181
5		0.00		6.80		5.503e-02		132.561
5		0.00		7.20		5.592e-02		132.472
5		0.00		7.60		5.643e-02		133.612
5		0.00		8.00		6.145e-02		133.232
5		0.00		8.40		6.191e-02		134.881
5		0.00		8.80		6.073e-02		134.253
5		0.00		9.20		6.401e-02		129.678
5		0.00		9.60		6.588e-02		131.572
5		0.00		10.00		6.111e-02		135.984
5		0.00		9.60		6.120e-02		127.460
5		0.00		9.20		6.085e-02		135.066
5		0.00		8.80		6.186e-02		131.186
5		0.00		8.40		6.071e-02		133.932
5		0.00		8.00		5.816e-02		133.687
5		0.00		7.60		5.397e-02		133.633
5		0.00		7.20		5.129e-02		132.874
5		0.00		6.80		4.963e-02		130.891
5		0.00		6.40		4.753e-02		133.333
5		0.00		6.00		4.345e-02		133.143
5		0.00		5.60		3.997e-02		131.951
5		0.00		5.20		3.614e-02		130.219
5		0.00		4.80		3.352e-02		131.356
5		0.00		4.40		3.010e-02		132.605
5		0.00		4.00		2.675e-02		134.045
5		0.00		3.60		2.265e-02		130.345
5		0.00		3.20		1.891e-02		130.206
5		0.00		2.80		1.564e-02		131.624
5		0.00		2.40		1.139e-02		131.978
5		0.00		2.00		6.991e-03		127.912
5		0.00		1.60		3.224e-03		96.412
5		0.00		1.20		2.269e-03		-41.031
5		0.00		0.80		5.906e-03		-54.343
5		0.00		0.40		1.046e-02		-48.053
5		0.00		0.00		1.492e-02		-45.459
5		0.00		-0.40		1.868e-02		-49.959
5		0.00		-0.80		2.284e-02		-49.958
5		0.00		-1.20		2.780e-02		-51.019
5		0.00		-1.60		3.169e-02		-49.407
5		0.00		-2.00		3.462e-02		-49.609
5		0.00		-2.40		3.761e-02		-51.619
5		0.00		-2.80		4.165e-02		-53.108
5		0.00		-3.20		4.574e-02		-51.626
5		0.00		-3.60		4.947e-02		-51.538
5		0.00		-4.00		5.051e-02		-53.942
5		0.00		-4.40		5.416e-02		-52.433
5		0.00		-4.80		5.894e-02		-51.096
5		0.00		-5.20		5.907e-02		-48.779
5		0.00		-5.60		6.126e-02		-48.481
5		0.00		-6.00		6.254e-02		-46.909
5		0.00		-6.40		6.507e-02		-45.358
5		0.00		-6.80		6.941e-02		-45.122
5		0.00		-7.20		6.374e-02		-43.108
5		0.00		-7.60		6.725e-02		-48.203
5		0.00		-8.00		6.784e-02		-42.342
5		0.00		-8.40		6.569e-02		-40.171
5		0.00		-8.80		6.559e-02		-37.152
5		0.00		-9.20		6.436e-02		-36.672
5		0.00		-9.60		6.021e-02		-45.923
5		0.00		-10.00		5.484e-02		-40.896
5		0.00		-9.60		6.044e-02		-42.132
5		0.00		-9.20		6.793e-02		-41.793
5		0.00		-8.80		6.163e-02		-37.482
5		0.00		-8.40		6.179e-02		-45.597
5		0.00		-8.00		6.377e-02		-42.319
5		0.00		-7.60		6.594e-02		-44.265
5		0.00		-7.20		6.300e-02		-44.978
5		0.00		-6.80		5.876e-02		-48.041
5		0.00		-6.40		5.829e-02		-49.966
5		0.00		-6.00		5.520e-02		-48.002
5		0.00		-5.60		5.455e-02		-49.719
5		0.00		-5.20		5.198e-02		-50.583
5		0.00		-4.80		4.890e-02		-50.216
5		0.00		-4.40		4.475e-02		-49.609
5		0.00		-4.00		4.037e-02		-49.974
5		0.00		-3.60		3.662e-02		-50.916
5		0.00		-3.20		3.259e-02		-49.743
5		0.00		-2.80		2.917e-02		-49.899
5		0.00		-2.40		2.462e-02		-48.770
5		0.00		-2.00		2.076e-02		-47.300
5		0.00		-1.60		1.614e-02		-45.938
5		0.00		-1.20		1.185e-02		-42.390
5		0.00		-0.80		8.100e-03		-37.544
5		0.00		-0.40		3.820e-03		-40.842
6		0.00		0.00		2.000e-03		64.363
6		0.00		0.40		5.049e-03		114.971
6		0.00		0.80		9.632e-03		123.495
6		0.00		1.20		1.366e-02		124.576
6		0.00		1.60		1.788e-02		128.303
6		0.00		2.00		2.171e-02		128.283
6		0.00		2.40		2.532e-02		130.333
6		0.00		2.80		2.859e-02		129.943
6		0.00		3.20		3.203e-02		129.420
6		0.00		3.60		3.598e-02		129.630
6		0.00		4.00		3.915e-02		131.211
6		0.00		4.40		4.188e-02		132.927
6		0.00		4.80		4.504e-02		130.554
6		0.00		5.20		4.637e-02		132.004
6		0.00		5.60		5.057e-02		131.000
6		0.00		6.00		5.301e-02		132.184
6		0.00		6.40		5.401e-02		132.617
6		0.00		6.80		5.508e-02		132.634
6		0.00		7.20		5.707e-02		133.083
6		0.00		7.60		5.855e-02		132.106
6		0.00		8.00		6.002e-02		132.967
6		0.00		8.40		6.198e-02		134.273
6		0.00		8.80		6.234e-02		133.572
6		0.00		9.20		6.277e-02		132.741
6		0.00		9.60		6.010e-02		124.569
6		0.00		10.00		5.946e-02		133.491
6		0.00		9.60		6.148e-02		129.698
6		0.00		9.20		6.309e-02		134.842
6		0.00		8.80		6.115e-02		134.689
6		0.00		8.40		5.697e-02		132.834
6		0.00		8.00		5.553e-02		130.168
6		0.00		7.60		5.469e-02		132.613
6		0.00		7.20		5.359e-02		132.712
6		0.00		6.80		5.161e-02		132.517
6		0.00		6.40		4.879e-02		132.597
6		0.00		6.00		4.568e-02		133.327
6		0.00		5.60		4.245e-02		133.350
6		0.00		5.20		3.811e-02		133.568
6		0.00		4.80		3.494e-02		133.247
6		0.00		4.40		3.105e-02		131.431
6		0.00		4.00		2.762e-02		132.484
6		0.00		3.60		2.434e-02		132.575
6		0.00		3.20		2.007e-02		132.924
6		0.00		2.80		1.588e-02		134.937
6		0.00		2.40		1.133e-02		130.856
6		0.00		2.00		7.301e-03		126.533
6		0.00		1.60		3.339e-03		111.726
6		0.00		1.20		2.005e-03		-31.176
6		0.00		0.80		5.766e-03		-53.048
6		0.00		0.40		1.007e-02		-51.152
6		0.00		0.00		1.411e-02		-47.446
6		0.00		-0.40		1.756e-02		-51.011
6		0.00		-0.80		2.256e-02		-48.461
6		0.00		-1.20		2.706e-02		-51.100
6		0.00		-1.60		3.152e-02		-50.711
6		0.00		-2.00		3.482e-02		-49.939
6		0.00		-2.40		3.839e-02		-51.038
6		0.00		-2.80		4.293e-02		-51.391
6		0.00		-3.20		4.619e-02		-51.956
6		0.00		-3.60		5.037e-02		-52.710
6		0.00		-4.00		5.249e-02		-52.192
6		0.00		-4.40		5.539e-02		-51.673
6		0.00		-4.80		5.626e-02		-50.889
6		0.00		-5.20		6.076e-02		-49.297
6		0.00		-5.60		6.280e-02		-47.305
6		0.00		-6.00		6.280e-02		-46.041
6		0.00		-6.40		6.147e-02		-49.654
6		0.00		-6.80		6.327e-02		-44.985
6		0.00		-7.20		6.526e-02		-39.864
6		0.00		-7.60		6.743e-02		-44.677
6		0.00		-8.00		6.824e-02		-41.766
6		0.00		-8.40		6.822e-02		-37.232
6		0.00		-8.80		6.377e-02		-40.122
6		0.00		-9.20		6.398e-02		-42.138
6		0.00		-9.60		6.075e-02		-35.335
6		0.00		-10.00		5.883e-02		-42.088
6		0.00		-9.60		6.208e-02		-40.782
6		0.00		-9.20		6.509e-02		-40.468
6		0.00		-8.80		6.615e-02		-37.500
6		0.00		-8.40		6.765e-02		-42.909
6		0.00		-8.00		6.748e-02		-42.187
6		0.00		-7.60		6.715e-02		-41.744
6		0.00		-7.20		6.518e-02		-43.565
6		0.00		-6.80		6.304e-02		-45.739
6		0.00		-6.40		6.028e-02		-46.730
6		0.00		-6.00		5.945e-02		-48.761
6		0.00		-5.60		5.674e-02		-48.522
6		0.00		-5.20		5.408e-02		-50.173
6		0.00		-4.80		5.167e-02		-50.148
6		0.00		-4.40		4.695e-02		-51.139
6		0.00		-4.00		4.328e-02		-49.496
6		0.00		-3.60		3.810e-02		-50.525
6		0.00		-3.20		3.422e-02		-49.604
6		0.00		-2.80		3.048e-02		-48.960
6		0.00		-2.40		2.676e-02		-49.858
6		0.00		-2.00		2.275e-02		-47.712
6		0.00		-1.60		1.800e-02		-46.553
6		0.00		-1.20		1.299e-02		-43.787
6		0.00		-0.80		8.496e-03		-41.549
6		0.00		-0.40		3.733e-03		-32.406
7		0.00		0.00		2.125e-03		51.183
7		0.00		0.40		6.062e-03		123.814
7		0.00		0.80		1.032e-02		126.551
7		0.00		1.20		1.453e-02		127.216
7		0.00		1.60		1.865e-02		130.300
7		0.00		2.00		2.298e-02		128.286
7		0.00		2.40		2.748e-02		130.671
7		0.00		2.80		3.164e-02		131.234
7		0.00		3.20		3.437e-02		131.017
7		0.00		3.60		3.738e-02		131.691
7		0.00		4.00		3.935e-02		130.090
7		0.00		4.40		4.230e-02		130.590
7		0.00		4.80		4.545e-02		130.928
7		0.00		5.20		4.757e-02		131.370
7		0.00		5.60		5.026e-02		133.232
7		0.00		6.00		5.090e-02		131.659
7		0.00		6.40		5.424e-02		131.561
7		0.00		6.80		5.800e-02		132.249
7		0.00		7.20		6.039e-02		132.887
7		0.00		7.60		5.884e-02		135.087
7		0.00		8.00		6.181e-02		133.111
7		0.00		8.40		6.274e-02		135.017
7		0.00		8.80		6.585e-02		133.088
7		0.00		9.20		6.887e-02		132.752
7		0.00		9.60		6.674e-02		135.866
7		0.00		10.00		6.469e-02		131.697
7		0.00		9.60		6.375e-02		135.542
7		0.00		9.20		6.460e-02		126.926
7		0.00		8.80		6.342e-02		131.411
7		0.00		8.40		6.184e-02		134.079
7		0.00		8.00		5.955e-02		133.185
7		0.00		7.60		5.710e-02		134.506
7		0.00		7.20		5.383e-02		134.917
7		0.00		6.80		5.164e-02		133.026
7		0.00		6.40		4.827e-02		132.637
7		0.00		6.00		4.622e-02		131.717
7		0.00		5.60		4.383e-02		132.946
7		0.00		5.20		4.092e-02		132.742
7		0.00		4.80		3.686e-02		133.912
7		0.00		4.40		3.263e-02		134.082
7		0.00		4.00		2.870e-02		132.025
7		0.00		3.60		2.465e-02		132.246
7		0.00		3.20		2.085e-02		133.502
7		0.00		2.80		1.675e-02		132.753
7		0.00		2.40		1.280e-02		134.864
7		0.00		2.00		8.202e-03		130.404
7		0.00		1.60		3.643e-03		117.884
7		0.00		1.20		2.206e-03		-20.790
7		0.00		0.80		5.971e-03		-48.933
7		0.00		0.40		1.072e-02		-49.806
7		0.00		0.00		1.549e-02		-48.648
7		0.00		-0.40		1.988e-02		-49.438
7		0.00		-0.80		2.391e-02		-49.038
7		0.00		-1.20		2.776e-02		-51.214
7		0.00		-1.60		3.224e-02		-51.607
7		0.00		-2.00		3.694e-02		-51.308
7		0.00		-2.40		4.104e-02		-51.171
7		0.00		-2.80		4.481e-02		-51.001
7		0.00		-3.20		4.821e-02		-50.663
7		0.00		-3.60		5.151e-02		-50.792
7		0.00		-4.00		5.547e-02		-51.968
7		0.00		-4.40		5.852e-02		-51.990
7		0.00		-4.80		6.086e-02		-50.544
7		0.00		-5.20		6.225e-02		-46.593
7		0.00		-5.60		6.220e-02		-43.822
7		0.00		-6.00		6.576e-02		-44.954
7		0.00		-6.40		6.751e-02		-42.088
7		0.00		-6.80		6.745e-02		-40.727
7		0.00		-7.20		7.198e-02		-42.951
7		0.00		-7.60		6.923e-02		-39.306
7		0.00		-8.00		6.765e-02		-39.275
7		0.00		-8.40		6.973e-02		-41.867
7		0.00		-8.80		6.234e-02		-42.149
7		0.00		-9.20		6.427e-02		-38.609
7		0.00		-9.60		6.087e-02		-40.693
7		0.00		-10.00		5.829e-02		-40.508
7		0.00		-9.60		6.094e-02		-39.201
7		0.00		-9.20		6.280e-02		-38.907
7		0.00		-8.80		6.392e-02		-37.979
7		0.00		-8.40		6.425e-02		-37.803
7		0.00		-8.00		6.636e-02		-43.883
7		0.00		-7.60		6.582e-02		-40.910
7		0.00		-7.20		6.480e-02		-43.552
7		0.00		-6.80		6.520e-02		-43.064
7		0.00		-6.40		6.403e-02		-45.622
7		0.00		-6.00		6.149e-02		-45.960
7		0.00		-5.60		5.833e-02		-47.648
7		0.00		-5.20		5.509e-02		-47.864
7		0.00		-4.80		4.977e-02		-49.008
7		0.00		-4.40		4.741e-02		-49.932
7		0.00		-4.00		4.318e-02		-50.243
7		0.00		-3.60		3.946e-02		-50.546
7		0.00		-3.20		3.489e-02		-50.482
7		0.00		-2.80		3.061e-02		-50.000
7		0.00		-2.40		2.629e-02		-48.140
7		0.00		-2.00		2.174e-02		-46.234
7		0.00		-1.60		1.720e-02		-49.213
7		0.00		-1.20		1.284e-02		-42.943
7		0.00		-0.80		8.923e-03		-41.783
7		0.00		-0.40		4.147e-03		-40.436
8		0.00		0.00		1.974e-03		24.399
8		0.00		0.40		5.058e-03		114.543
8		0.00		0.80		9.518e-03		129.086
8		0.00		1.20		1.364e-02		127.406
8		0.00		1.60		1.840e-02		130.337
8		0.00		2.00		2.241e-02		128.242
8		0.00		2.40		2.695e-02		128.956
8		0.00		2.80		3.026e-02		131.585
8		0.00		3.20		3.379e-02		132.062
8		0.00		3.60		3.682e-02		131.327
8		0.00		4.00		3.971e-02		131.288
8		0.00		4.40		4.265e-02		130.626
8		0.00		4.80		4.572e-02		131.387
8		0.00		5.20		4.804e-02		132.881
8		0.00		5.60		4.873e-02		132.746
8		0.00		6.00		5.123e-02		130.626
8		0.00		6.40		5.340e-02		131.549
8		0.00		6.80		5.734e-02		132.832
8		0.00		7.20		5.623e-02		133.874
8		0.00		7.60		5.938e-02		133.125
8		0.00		8.00		6.087e-02		133.962
8		0.00		8.40		6.275e-02		131.291
8		0.00		8.80		6.560e-02		133.445
8		0.00		9.20		6.359e-02		131.152
8		0.00		9.60		6.420e-02		135.304
8		0.00		10.00		6.150e-02		128.363
8		0.00		9.60		6.387e-02		131.127
8		0.00		9.20		6.362e-02		133.946
8		0.00		8.80		6.228e-02		131.344
8		0.00		8.40		5.963e-02		135.657
8		0.00		8.00		5.890e-02		134.346
8		0.00		7.60		5.661e-02		133.242
8		0.00		7.20		5.430e-02		132.324
8		0.00		6.80		5.199e-02		132.388
8		0.00		6.40		4.946e-02		133.292
8		0.00		6.00		4.626e-02		133.172
8		0.00		5.60		4.278e-02		132.784
8		0.00		5.20		3.853e-02		132.067
8		0.00		4.80		3.490e-02		132.252
8		0.00		4.40		3.171e-02		133.170
8		0.00		4.00		2.837e-02		132.485
8		0.00		3.60		2.469e-02		133.297
8		0.00		3.20		2.058e-02		133.464
8		0.00		2.80		1.620e-02		133.311
8		0.00		2.40		1.194e-02		128.246
8		0.00		2.00		8.139e-03		131.922
8		0.00		1.60		3.835e-03		119.884
8		0.00		1.20		1.867e-03		-22.190
8		0.00		0.80		5.568e-03		-58.908
8		0.00		0.40		1.034e-02		-44.395
8		0.00		0.00		1.458e-02		-46.449
8		0.00		-0.40		1.876e-02		-46.920
8		0.00		-0.80		2.328e-02		-51.043
8		0.00		-1.20		2.801e-02		-50.058
8		0.00		-1.60		3.256e-02		-51.618
8		0.00		-2.00		3.648e-02		-49.839
8		0.00		-2.40		3.900e-02		-50.787
8		0.00		-2.80		4.289e-02		-50.957
8		0.00		-3.20		4.669e-02		-53.433
8		0.00		-3.60		5.065e-02		-51.754
8		0.00		-4.00		5.330e-02		-52.528
8		0.00		-4.40		5.607e-02		-50.820
8		0.00		-4.80		5.684e-02		-49.326
8		0.00		-5.20		6.058e-02		-50.093
8		0.00		-5.60		6.455e-02		-47.692
8		0.00		-6.00		6.408e-02		-44.775
8		0.00		-6.40		6.267e-02		-43.834
8		0.00		-6.80		6.539e-02		-44.061
8		0.00		-7.20		6.497e-02		-41.720
8		0.00		-7.60		6.887e-02		-40.847
8		0.00		-8.00		7.005e-02		-34.464
8		0.00		-8.40		6.785e-02		-45.099
8		0.00		-8.80		6.371e-02		-39.858
8		0.00		-9.20		6.371e-02		-38.641
8		0.00		-9.60		6.265e-02		-37.752
8		0.00		-10.00		5.905e-02		-41.373
8		0.00		-9.60		6.071e-02		-39.007
8		0.00		-9.20		6.098e-02		-36.202
8		0.00		-8.80		6.357e-02		-46.102
8		0.00		-8.40		6.597e-02		-40.432
8		0.00		-8.00		6.879e-02		-41.420
8		0.00		-7.60		6.721e-02		-43.302
8		0.00		-7.20		6.145e-02		-46.553
8		0.00		-6.80		6.006e-02		-46.763
8		0.00		-6.40		6.051e-02		-47.122
8		0.00		-6.00		6.040e-02		-48.314
8		0.00		-5.60		5.699e-02		-48.489
8		0.00		-5.20		5.315e-02		-48.355
8		0.00		-4.80		4.959e-02		-48.893
8		0.00		-4.40		4.648e-02		-49.965
8		0.00		-4.00		4.228e-02		-51.839
8		0.00		-3.60		3.905e-02		-50.948
8		0.00		-3.20		3.477e-02		-49.657
8		0.00		-2.80		2.984e-02		-47.369
8		0.00		-2.40		2.490e-02		-47.924
8		0.00		-2.00		2.145e-02		-48.411
8		0.00		-1.60		1.740e-02		-48.190
8		0.00		-1.20		1.367e-02		-45.205
8		0.00		-0.80		8.197e-03		-39.681
8		0.00		-0.40		4.258e-03		-32.953
